Kanal;   Energie(keV); Impulse
       1;    16.9617;         8219   
       2;    17.8370;         8389   
       3;    18.7122;         7985   
       4;    19.5875;         7968   
       5;    20.4628;         7660   
       6;    21.3381;         7352   
       7;    22.2133;         7320   
       8;    23.0886;         6989   
       9;    23.9639;         6770   
      10;    24.8392;         6645   
      11;    25.7144;         6280   
      12;    26.5897;         6305   
      13;    27.4650;         6239   
      14;    28.3403;         6121   
      15;    29.2155;         5879   
      16;    30.0908;         5714   
      17;    30.9661;         5762   
      18;    31.8414;         5463   
      19;    32.7166;         5614   
      20;    33.5919;         5620   
      21;    34.4672;         5615   
      22;    35.3425;         5398   
      23;    36.2177;         5331   
      24;    37.0930;         5498   
      25;    37.9683;         5451   
      26;    38.8436;         5320   
      27;    39.7188;         5229   
      28;    40.5941;         5175   
      29;    41.4694;         5092   
      30;    42.3447;         5140   
      31;    43.2199;         5085   
      32;    44.0952;         5207   
      33;    44.9705;         4970   
      34;    45.8458;         5087   
      35;    46.7210;         5086   
      36;    47.5963;         5078   
      37;    48.4716;         5003   
      38;    49.3469;         5006   
      39;    50.2221;         4860   
      40;    51.0974;         5022   
      41;    51.9727;         4944   
      42;    52.8480;         5035   
      43;    53.7232;         5145   
      44;    54.5985;         6168   
      45;    55.4738;         7190   
      46;    56.3491;         5718   
      47;    57.2243;         5055   
      48;    58.0996;         5068   
      49;    58.9749;         5165   
      50;    59.8502;         5038   
      51;    60.7254;         5243   
      52;    61.6007;         5422   
      53;    62.4760;         5847   
      54;    63.3513;         6409   
      55;    64.2265;         7166   
      56;    65.1018;         7490   
      57;    65.9771;         7568   
      58;    66.8524;         7398   
      59;    67.7276;         7204   
      60;    68.6029;         7022   
      61;    69.4782;         6951   
      62;    70.3535;         7009   
      63;    71.2287;         6892   
      64;    72.1040;         6915   
      65;    72.9793;         6901   
      66;    73.8546;         7379   
      67;    74.7298;         8262   
      68;    75.6051;         8213   
      69;    76.4804;         8940   
      70;    77.3557;         9681   
      71;    78.2309;         8324   
      72;    79.1062;         8029   
      73;    79.9815;         9182   
      74;    80.8568;        15939   
      75;    81.7320;        44954   
      76;    82.6073;       144202   
      77;    83.4826;       151751   
      78;    84.3579;        37165   
      79;    85.2331;         8079   
      80;    86.1084;         7260   
      81;    86.9837;         6832   
      82;    87.8590;         5739   
      83;    88.7342;         5037   
      84;    89.6095;         4814   
      85;    90.4848;         4514   
      86;    91.3601;         4303   
      87;    92.2353;         4291   
      88;    93.1106;         4148   
      89;    93.9859;         4305   
      90;    94.8612;         4246   
      91;    95.7364;         4394   
      92;    96.6117;         4310   
      93;    97.4870;         4529   
      94;    98.3623;         4367   
      95;    99.2375;         4435   
      96;   100.1128;         4385   
      97;   100.9881;         4482   
      98;   101.8634;         4429   
      99;   102.7386;         4536   
     100;   103.6139;         4513   
     101;   104.4892;         4611   
     102;   105.3645;         4486   
     103;   106.2397;         4577   
     104;   107.1150;         4622   
     105;   107.9903;         4490   
     106;   108.8656;         4702   
     107;   109.7408;         4664   
     108;   110.6161;         4670   
     109;   111.4914;         4568   
     110;   112.3667;         4647   
     111;   113.2419;         4644   
     112;   114.1172;         4648   
     113;   114.9925;         4659   
     114;   115.8678;         4740   
     115;   116.7430;         4713   
     116;   117.6183;         4775   
     117;   118.4936;         4775   
     118;   119.3689;         4750   
     119;   120.2441;         4774   
     120;   121.1194;         5054   
     121;   121.9947;         4981   
     122;   122.8700;         4936   
     123;   123.7452;         4983   
     124;   124.6205;         4966   
     125;   125.4958;         5027   
     126;   126.3711;         5137   
     127;   127.2463;         5186   
     128;   128.1216;         5130   
     129;   128.9969;         5195   
     130;   129.8722;         5343   
     131;   130.7474;         5331   
     132;   131.6227;         5403   
     133;   132.4980;         5420   
     134;   133.3733;         5508   
     135;   134.2485;         5638   
     136;   135.1238;         5723   
     137;   135.9991;         5879   
     138;   136.8744;         5890   
     139;   137.7496;         5921   
     140;   138.6249;         6150   
     141;   139.5002;         6401   
     142;   140.3755;         6584   
     143;   141.2507;         6593   
     144;   142.1260;         6888   
     145;   143.0013;         6701   
     146;   143.8766;         6862   
     147;   144.7518;         6898   
     148;   145.6271;         6968   
     149;   146.5024;         6917   
     150;   147.3777;         7011   
     151;   148.2529;         7101   
     152;   149.1282;         7313   
     153;   150.0035;         7408   
     154;   150.8788;         7956   
     155;   151.7540;         8235   
     156;   152.6293;         8401   
     157;   153.5046;         8530   
     158;   154.3799;         8842   
     159;   155.2551;         8523   
     160;   156.1304;         8558   
     161;   157.0057;         8496   
     162;   157.8810;         8588   
     163;   158.7562;         8323   
     164;   159.6315;         8351   
     165;   160.5068;         8104   
     166;   161.3821;         9012   
     167;   162.2573;        11857   
     168;   163.1326;        10889   
     169;   164.0079;         8179   
     170;   164.8832;         7242   
     171;   165.7584;         6970   
     172;   166.6337;         6716   
     173;   167.5090;         6760   
     174;   168.3843;         6496   
     175;   169.2595;         6358   
     176;   170.1348;         6356   
     177;   171.0101;         6238   
     178;   171.8854;         6069   
     179;   172.7606;         5942   
     180;   173.6359;         5822   
     181;   174.5112;         5892   
     182;   175.3865;         5764   
     183;   176.2617;         5815   
     184;   177.1370;         5699   
     185;   178.0123;         5592   
     186;   178.8876;         5669   
     187;   179.7628;         5613   
     188;   180.6381;         5566   
     189;   181.5134;         5569   
     190;   182.3887;         5637   
     191;   183.2639;         5329   
     192;   184.1392;         5627   
     193;   185.0145;         5496   
     194;   185.8898;         5504   
     195;   186.7650;         5450   
     196;   187.6403;         5591   
     197;   188.5156;         5485   
     198;   189.3909;         5296   
     199;   190.2661;         5341   
     200;   191.1414;         5403   
     201;   192.0167;         5350   
     202;   192.8920;         5365   
     203;   193.7672;         5543   
     204;   194.6425;         5334   
     205;   195.5178;         5425   
     206;   196.3931;         5414   
     207;   197.2683;         5372   
     208;   198.1436;         5450   
     209;   199.0189;         5511   
     210;   199.8942;         5423   
     211;   200.7694;         5252   
     212;   201.6447;         5308   
     213;   202.5200;         5450   
     214;   203.3953;         5406   
     215;   204.2705;         5478   
     216;   205.1458;         5327   
     217;   206.0211;         5120   
     218;   206.8964;         5076   
     219;   207.7716;         4971   
     220;   208.6469;         4895   
     221;   209.5222;         4574   
     222;   210.3975;         4230   
     223;   211.2727;         4140   
     224;   212.1480;         3953   
     225;   213.0233;         3990   
     226;   213.8986;         3872   
     227;   214.7738;         3774   
     228;   215.6491;         3574   
     229;   216.5244;         3573   
     230;   217.3997;         3574   
     231;   218.2749;         3449   
     232;   219.1502;         3516   
     233;   220.0255;         3503   
     234;   220.9008;         3418   
     235;   221.7760;         3355   
     236;   222.6513;         3295   
     237;   223.5266;         3534   
     238;   224.4019;         4782   
     239;   225.2771;         5700   
     240;   226.1524;         4194   
     241;   227.0277;         3282   
     242;   227.9030;         3177   
     243;   228.7782;         2994   
     244;   229.6535;         3062   
     245;   230.5288;         3016   
     246;   231.4041;         2899   
     247;   232.2793;         2867   
     248;   233.1546;         2783   
     249;   234.0299;         2767   
     250;   234.9052;         2781   
     251;   235.7804;         2675   
     252;   236.6557;         2664   
     253;   237.5310;         2598   
     254;   238.4063;         2581   
     255;   239.2815;         2531   
     256;   240.1568;         2596   
     257;   241.0321;         2640   
     258;   241.9074;         2453   
     259;   242.7826;         2388   
     260;   243.6579;         2340   
     261;   244.5332;         2204   
     262;   245.4085;         2280   
     263;   246.2837;         2235   
     264;   247.1590;         2214   
     265;   248.0343;         2207   
     266;   248.9096;         2194   
     267;   249.7848;         2130   
     268;   250.6601;         2106   
     269;   251.5354;         2125   
     270;   252.4107;         2030   
     271;   253.2859;         2057   
     272;   254.1612;         2045   
     273;   255.0365;         2088   
     274;   255.9118;         2058   
     275;   256.7870;         1958   
     276;   257.6623;         1972   
     277;   258.5376;         1913   
     278;   259.4129;         1913   
     279;   260.2881;         1898   
     280;   261.1634;         1820   
     281;   262.0387;         1894   
     282;   262.9140;         1877   
     283;   263.7892;         1939   
     284;   264.6645;         1846   
     285;   265.5398;         1906   
     286;   266.4151;         1815   
     287;   267.2903;         1768   
     288;   268.1656;         1732   
     289;   269.0409;         1754   
     290;   269.9162;         1732   
     291;   270.7914;         1715   
     292;   271.6667;         1703   
     293;   272.5420;         1718   
     294;   273.4173;         1664   
     295;   274.2925;         1698   
     296;   275.1678;         1710   
     297;   276.0431;         2020   
     298;   276.9184;         7603   
     299;   277.7936;        28056   
     300;   278.6689;        30905   
     301;   279.5442;         9424   
     302;   280.4195;         2595   
     303;   281.2947;         2007   
     304;   282.1700;         1800   
     305;   283.0453;         1756   
     306;   283.9206;         1666   
     307;   284.7958;         1564   
     308;   285.6711;         1568   
     309;   286.5464;         1586   
     310;   287.4217;         1488   
     311;   288.2969;         1589   
     312;   289.1722;         1467   
     313;   290.0475;         1514   
     314;   290.9228;         1490   
     315;   291.7980;         1500   
     316;   292.6733;         1462   
     317;   293.5486;         1509   
     318;   294.4239;         1473   
     319;   295.2991;         1461   
     320;   296.1744;         1407   
     321;   297.0497;         1520   
     322;   297.9250;         1555   
     323;   298.8002;         1464   
     324;   299.6755;         1407   
     325;   300.5508;         1509   
     326;   301.4261;         1534   
     327;   302.3013;         2112   
     328;   303.1766;        10690   
     329;   304.0519;        53081   
     330;   304.9272;        77624   
     331;   305.8024;        28813   
     332;   306.6777;         4940   
     333;   307.5530;         2542   
     334;   308.4283;         2018   
     335;   309.3035;         1791   
     336;   310.1788;         1507   
     337;   311.0541;         1358   
     338;   311.9294;         1330   
     339;   312.8046;         1283   
     340;   313.6799;         1339   
     341;   314.5552;         1299   
     342;   315.4305;         1333   
     343;   316.3057;         1274   
     344;   317.1810;         1263   
     345;   318.0563;         1261   
     346;   318.9316;         1155   
     347;   319.8068;         1264   
     348;   320.6821;         1259   
     349;   321.5574;         1259   
     350;   322.4327;         1251   
     351;   323.3079;         1231   
     352;   324.1832;         1156   
     353;   325.0585;         1130   
     354;   325.9338;         1176   
     355;   326.8090;         1150   
     356;   327.6843;         1166   
     357;   328.5596;         1119   
     358;   329.4349;         1122   
     359;   330.3101;         1175   
     360;   331.1854;         1079   
     361;   332.0607;         1103   
     362;   332.9360;         1079   
     363;   333.8112;         1029   
     364;   334.6865;         1092   
     365;   335.5618;         1083   
     366;   336.4371;         1103   
     367;   337.3123;         1105   
     368;   338.1876;         1075   
     369;   339.0629;         1104   
     370;   339.9382;         1091   
     371;   340.8134;         1064   
     372;   341.6887;         1078   
     373;   342.5640;         1030   
     374;   343.4393;         1075   
     375;   344.3145;         1080   
     376;   345.1898;         1036   
     377;   346.0651;         1055   
     378;   346.9404;         1022   
     379;   347.8156;         1052   
     380;   348.6909;         1054   
     381;   349.5662;         1092   
     382;   350.4415;         1095   
     383;   351.3167;         1147   
     384;   352.1920;         1145   
     385;   353.0673;         1146   
     386;   353.9426;         1287   
     387;   354.8178;         1498   
     388;   355.6931;         5627   
     389;   356.5684;        53792   
     390;   357.4437;       193504   
     391;   358.3189;       187040   
     392;   359.1942;        49791   
     393;   360.0695;         7236   
     394;   360.9448;         3939   
     395;   361.8200;         2943   
     396;   362.6953;         2247   
     397;   363.5706;         1641   
     398;   364.4459;         1217   
     399;   365.3211;         1095   
     400;   366.1964;         1051   
     401;   367.0717;         1030   
     402;   367.9470;         1027   
     403;   368.8222;         1002   
     404;   369.6975;          969   
     405;   370.5728;          937   
     406;   371.4481;          969   
     407;   372.3233;          861   
     408;   373.1986;          887   
     409;   374.0739;          897   
     410;   374.9492;          850   
     411;   375.8244;          858   
     412;   376.6997;          864   
     413;   377.5750;          837   
     414;   378.4503;          770   
     415;   379.3255;          799   
     416;   380.2008;          829   
     417;   381.0761;          796   
     418;   381.9514;          874   
     419;   382.8266;          913   
     420;   383.7019;         2072   
     421;   384.5772;        11710   
     422;   385.4525;        30248   
     423;   386.3277;        21756   
     424;   387.2030;         5205   
     425;   388.0783;         1376   
     426;   388.9536;         1063   
     427;   389.8288;          887   
     428;   390.7041;          838   
     429;   391.5794;          738   
     430;   392.4547;          703   
     431;   393.3299;          640   
     432;   394.2052;          677   
     433;   395.0805;          650   
     434;   395.9558;          677   
     435;   396.8310;          616   
     436;   397.7063;          672   
     437;   398.5816;          627   
     438;   399.4569;          605   
     439;   400.3321;          622   
     440;   401.2074;          645   
     441;   402.0827;          598   
     442;   402.9580;          585   
     443;   403.8332;          585   
     444;   404.7085;          644   
     445;   405.5838;          589   
     446;   406.4591;          578   
     447;   407.3343;          579   
     448;   408.2096;          572   
     449;   409.0849;          572   
     450;   409.9602;          553   
     451;   410.8354;          592   
     452;   411.7107;          592   
     453;   412.5860;          545   
     454;   413.4613;          567   
     455;   414.3365;          571   
     456;   415.2118;          593   
     457;   416.0871;          542   
     458;   416.9624;          570   
     459;   417.8376;          571   
     460;   418.7129;          591   
     461;   419.5882;          561   
     462;   420.4635;          581   
     463;   421.3387;          574   
     464;   422.2140;          583   
     465;   423.0893;          597   
     466;   423.9646;          530   
     467;   424.8398;          579   
     468;   425.7151;          561   
     469;   426.5904;          585   
     470;   427.4657;          571   
     471;   428.3409;          584   
     472;   429.2162;          590   
     473;   430.0915;          585   
     474;   430.9668;          614   
     475;   431.8420;          627   
     476;   432.7173;          601   
     477;   433.5926;          606   
     478;   434.4679;          698   
     479;   435.3431;          635   
     480;   436.2184;          664   
     481;   437.0937;          869   
     482;   437.9690;         1489   
     483;   438.8442;         1986   
     484;   439.7195;         1116   
     485;   440.5948;          523   
     486;   441.4701;          442   
     487;   442.3453;          431   
     488;   443.2206;          392   
     489;   444.0959;          412   
     490;   444.9712;          405   
     491;   445.8464;          376   
     492;   446.7217;          391   
     493;   447.5970;          367   
     494;   448.4723;          377   
     495;   449.3475;          377   
     496;   450.2228;          360   
     497;   451.0981;          351   
     498;   451.9734;          350   
     499;   452.8486;          372   
     500;   453.7239;          395   
     501;   454.5992;          342   
     502;   455.4745;          381   
     503;   456.3497;          364   
     504;   457.2250;          377   
     505;   458.1003;          362   
     506;   458.9756;          376   
     507;   459.8508;          371   
     508;   460.7261;          365   
     509;   461.6014;          345   
     510;   462.4767;          355   
     511;   463.3519;          373   
     512;   464.2272;          373   
     513;   465.1025;          402   
     514;   465.9778;          429   
     515;   466.8530;          362   
     516;   467.7283;          343   
     517;   468.6036;          351   
     518;   469.4789;          328   
     519;   470.3541;          298   
     520;   471.2294;          320   
     521;   472.1047;          317   
     522;   472.9800;          282   
     523;   473.8552;          315   
     524;   474.7305;          314   
     525;   475.6058;          297   
     526;   476.4811;          334   
     527;   477.3563;          306   
     528;   478.2316;          316   
     529;   479.1069;          293   
     530;   479.9822;          287   
     531;   480.8574;          314   
     532;   481.7327;          291   
     533;   482.6080;          281   
     534;   483.4833;          278   
     535;   484.3585;          291   
     536;   485.2338;          302   
     537;   486.1091;          273   
     538;   486.9844;          299   
     539;   487.8596;          308   
     540;   488.7349;          291   
     541;   489.6102;          259   
     542;   490.4855;          308   
     543;   491.3607;          286   
     544;   492.2360;          309   
     545;   493.1113;          302   
     546;   493.9866;          277   
     547;   494.8618;          269   
     548;   495.7371;          301   
     549;   496.6124;          270   
     550;   497.4877;          309   
     551;   498.3629;          250   
     552;   499.2382;          315   
     553;   500.1135;          266   
     554;   500.9888;          277   
     555;   501.8640;          267   
     556;   502.7393;          245   
     557;   503.6146;          274   
     558;   504.4899;          233   
     559;   505.3651;          268   
     560;   506.2404;          306   
     561;   507.1157;          263   
     562;   507.9910;          275   
     563;   508.8662;          265   
     564;   509.7415;          271   
     565;   510.6168;          268   
     566;   511.4921;          279   
     567;   512.3673;          311   
     568;   513.2426;          304   
     569;   514.1179;          294   
     570;   514.9932;          256   
     571;   515.8684;          261   
     572;   516.7437;          272   
     573;   517.6190;          261   
     574;   518.4943;          248   
     575;   519.3695;          234   
     576;   520.2448;          242   
     577;   521.1201;          245   
     578;   521.9954;          223   
     579;   522.8706;          205   
     580;   523.7459;          228   
     581;   524.6212;          223   
     582;   525.4965;          224   
     583;   526.3717;          191   
     584;   527.2470;          183   
     585;   528.1223;          215   
     586;   528.9976;          208   
     587;   529.8728;          210   
     588;   530.7481;          226   
     589;   531.6234;          230   
     590;   532.4987;          200   
     591;   533.3739;          196   
     592;   534.2492;          192   
     593;   535.1245;          191   
     594;   535.9998;          214   
     595;   536.8750;          234   
     596;   537.7503;          250   
     597;   538.6256;          230   
     598;   539.5009;          216   
     599;   540.3761;          191   
     600;   541.2514;          197   
     601;   542.1267;          206   
     602;   543.0020;          229   
     603;   543.8772;          180   
     604;   544.7525;          206   
     605;   545.6278;          192   
     606;   546.5031;          201   
     607;   547.3783;          207   
     608;   548.2536;          191   
     609;   549.1289;          200   
     610;   550.0042;          208   
     611;   550.8794;          179   
     612;   551.7547;          183   
     613;   552.6300;          171   
     614;   553.5053;          175   
     615;   554.3805;          198   
     616;   555.2558;          191   
     617;   556.1311;          162   
     618;   557.0064;          199   
     619;   557.8816;          177   
     620;   558.7569;          185   
     621;   559.6322;          162   
     622;   560.5075;          175   
     623;   561.3827;          162   
     624;   562.2580;          154   
     625;   563.1333;          160   
     626;   564.0086;          154   
     627;   564.8838;          147   
     628;   565.7591;          169   
     629;   566.6344;          154   
     630;   567.5097;          160   
     631;   568.3849;          162   
     632;   569.2602;          159   
     633;   570.1355;          138   
     634;   571.0108;          148   
     635;   571.8860;          139   
     636;   572.7613;          144   
     637;   573.6366;          153   
     638;   574.5119;          150   
     639;   575.3871;          146   
     640;   576.2624;          143   
     641;   577.1377;          113   
     642;   578.0130;          171   
     643;   578.8882;          152   
     644;   579.7635;          158   
     645;   580.6388;          158   
     646;   581.5141;          195   
     647;   582.3893;          161   
     648;   583.2646;          129   
     649;   584.1399;          200   
     650;   585.0152;          207   
     651;   585.8904;          161   
     652;   586.7657;          139   
     653;   587.6410;          134   
     654;   588.5163;          138   
     655;   589.3915;          143   
     656;   590.2668;          123   
     657;   591.1421;          124   
     658;   592.0174;          135   
     659;   592.8926;          119   
     660;   593.7679;          158   
     661;   594.6432;          128   
     662;   595.5185;          140   
     663;   596.3937;          133   
     664;   597.2690;          133   
     665;   598.1443;          112   
     666;   599.0196;          137   
     667;   599.8948;          121   
     668;   600.7701;          146   
     669;   601.6454;          144   
     670;   602.5207;          113   
     671;   603.3959;          141   
     672;   604.2712;          130   
     673;   605.1465;          143   
     674;   606.0218;          148   
     675;   606.8970;          139   
     676;   607.7723;          130   
     677;   608.6476;          139   
     678;   609.5229;          148   
     679;   610.3981;          202   
     680;   611.2734;          203   
     681;   612.1487;          170   
     682;   613.0240;          126   
     683;   613.8992;          107   
     684;   614.7745;          127   
     685;   615.6498;          136   
     686;   616.5251;          127   
     687;   617.4003;          130   
     688;   618.2756;          128   
     689;   619.1509;          123   
     690;   620.0262;          115   
     691;   620.9014;          109   
     692;   621.7767;          133   
     693;   622.6520;          100   
     694;   623.5273;          104   
     695;   624.4025;          124   
     696;   625.2778;          129   
     697;   626.1531;          124   
     698;   627.0284;          126   
     699;   627.9036;          121   
     700;   628.7789;          111   
     701;   629.6542;          124   
     702;   630.5295;          142   
     703;   631.4047;          130   
     704;   632.2800;          145   
     705;   633.1553;          157   
     706;   634.0306;          150   
     707;   634.9058;          128   
     708;   635.7811;          106   
     709;   636.6564;          112   
     710;   637.5317;          119   
     711;   638.4069;          117   
     712;   639.2822;          119   
     713;   640.1575;          120   
     714;   641.0328;          115   
     715;   641.9080;          118   
     716;   642.7833;           98   
     717;   643.6586;          110   
     718;   644.5339;           99   
     719;   645.4091;          119   
     720;   646.2844;           89   
     721;   647.1597;           86   
     722;   648.0350;          112   
     723;   648.9102;          109   
     724;   649.7855;           98   
     725;   650.6608;          108   
     726;   651.5361;          136   
     727;   652.4113;          121   
     728;   653.2866;          121   
     729;   654.1619;          133   
     730;   655.0372;          119   
     731;   655.9124;          121   
     732;   656.7877;          138   
     733;   657.6630;          125   
     734;   658.5383;          159   
     735;   659.4135;          185   
     736;   660.2888;          181   
     737;   661.1641;          158   
     738;   662.0394;           97   
     739;   662.9146;           74   
     740;   663.7899;           88   
     741;   664.6652;           74   
     742;   665.5405;           71   
     743;   666.4157;           82   
     744;   667.2910;           69   
     745;   668.1663;           59   
     746;   669.0416;           79   
     747;   669.9168;           81   
     748;   670.7921;           90   
     749;   671.6674;           89   
     750;   672.5427;           86   
     751;   673.4179;           86   
     752;   674.2932;           85   
     753;   675.1685;           64   
     754;   676.0438;           79   
     755;   676.9190;           77   
     756;   677.7943;           72   
     757;   678.6696;           82   
     758;   679.5449;           72   
     759;   680.4201;           90   
     760;   681.2954;           74   
     761;   682.1707;           92   
     762;   683.0460;           85   
     763;   683.9212;           90   
     764;   684.7965;           87   
     765;   685.6718;           89   
     766;   686.5471;           87   
     767;   687.4223;          100   
     768;   688.2976;           84   
     769;   689.1729;           79   
     770;   690.0482;          108   
     771;   690.9234;           81   
     772;   691.7987;           76   
     773;   692.6740;           83   
     774;   693.5493;           76   
     775;   694.4245;           85   
     776;   695.2998;           66   
     777;   696.1751;           84   
     778;   697.0504;           91   
     779;   697.9256;           88   
     780;   698.8009;           88   
     781;   699.6762;           94   
     782;   700.5515;           93   
     783;   701.4267;           91   
     784;   702.3020;           91   
     785;   703.1773;          103   
     786;   704.0526;           99   
     787;   704.9278;          104   
     788;   705.8031;           94   
     789;   706.6784;          109   
     790;   707.5537;          108   
     791;   708.4289;          109   
     792;   709.3042;          107   
     793;   710.1795;          128   
     794;   711.0548;          110   
     795;   711.9300;          178   
     796;   712.8053;          207   
     797;   713.6806;          170   
     798;   714.5559;           86   
     799;   715.4311;           66   
     800;   716.3064;           51   
     801;   717.1817;           51   
     802;   718.0570;           47   
     803;   718.9322;           40   
     804;   719.8075;           41   
     805;   720.6828;           49   
     806;   721.5581;           33   
     807;   722.4333;           43   
     808;   723.3086;           36   
     809;   724.1839;           37   
     810;   725.0592;           44   
     811;   725.9344;           31   
     812;   726.8097;           47   
     813;   727.6850;           62   
     814;   728.5603;           64   
     815;   729.4355;           59   
     816;   730.3108;           57   
     817;   731.1861;           48   
     818;   732.0614;           49   
     819;   732.9366;           43   
     820;   733.8119;           56   
     821;   734.6872;           52   
     822;   735.5625;           52   
     823;   736.4377;           70   
     824;   737.3130;           62   
     825;   738.1883;           64   
     826;   739.0636;           58   
     827;   739.9388;           76   
     828;   740.8141;           67   
     829;   741.6894;           64   
     830;   742.5647;           41   
     831;   743.4399;           37   
     832;   744.3152;           32   
     833;   745.1905;           19   
     834;   746.0658;           23   
     835;   746.9410;           27   
     836;   747.8163;           32   
     837;   748.6916;           25   
     838;   749.5669;           40   
     839;   750.4421;           36   
     840;   751.3174;           37   
     841;   752.1927;           29   
     842;   753.0680;           30   
     843;   753.9432;           34   
     844;   754.8185;           31   
     845;   755.6938;           20   
     846;   756.5691;           38   
     847;   757.4443;           21   
     848;   758.3196;           45   
     849;   759.1949;           29   
     850;   760.0702;           33   
     851;   760.9454;           34   
     852;   761.8207;           26   
     853;   762.6960;           32   
     854;   763.5713;           22   
     855;   764.4465;           45   
     856;   765.3218;           29   
     857;   766.1971;           21   
     858;   767.0724;           27   
     859;   767.9476;           28   
     860;   768.8229;           47   
     861;   769.6982;           34   
     862;   770.5735;           38   
     863;   771.4487;           37   
     864;   772.3240;           33   
     865;   773.1993;           28   
     866;   774.0746;           38   
     867;   774.9498;           39   
     868;   775.8251;           28   
     869;   776.7004;           32   
     870;   777.5757;           34   
     871;   778.4509;           22   
     872;   779.3262;           36   
     873;   780.2015;           38   
     874;   781.0768;           24   
     875;   781.9520;           29   
     876;   782.8273;           33   
     877;   783.7026;           27   
     878;   784.5779;           13   
     879;   785.4531;           28   
     880;   786.3284;           38   
     881;   787.2037;           34   
     882;   788.0790;           19   
     883;   788.9542;           31   
     884;   789.8295;           23   
     885;   790.7048;           23   
     886;   791.5801;           25   
     887;   792.4553;           28   
     888;   793.3306;           29   
     889;   794.2059;           28   
     890;   795.0812;           28   
     891;   795.9564;           35   
     892;   796.8317;           31   
     893;   797.7070;           25   
     894;   798.5823;           27   
     895;   799.4575;           31   
     896;   800.3328;           33   
     897;   801.2081;           30   
     898;   802.0834;           25   
     899;   802.9586;           19   
     900;   803.8339;           16   
     901;   804.7092;           20   
     902;   805.5845;           22   
     903;   806.4597;           25   
     904;   807.3350;           19   
     905;   808.2103;           25   
     906;   809.0856;           20   
     907;   809.9608;           27   
     908;   810.8361;           25   
     909;   811.7114;           29   
     910;   812.5867;           27   
     911;   813.4619;           19   
     912;   814.3372;           21   
     913;   815.2125;           26   
     914;   816.0878;           31   
     915;   816.9631;           20   
     916;   817.8383;           17   
     917;   818.7136;           26   
     918;   819.5889;           24   
     919;   820.4642;           29   
     920;   821.3394;           24   
     921;   822.2147;           20   
     922;   823.0900;           23   
     923;   823.9653;           19   
     924;   824.8405;           13   
     925;   825.7158;           23   
     926;   826.5911;           19   
     927;   827.4664;           18   
     928;   828.3416;           16   
     929;   829.2169;           20   
     930;   830.0922;           25   
     931;   830.9675;           18   
     932;   831.8427;           34   
     933;   832.7180;           25   
     934;   833.5933;           15   
     935;   834.4686;           22   
     936;   835.3438;           28   
     937;   836.2191;           32   
     938;   837.0944;           33   
     939;   837.9697;           13   
     940;   838.8449;           23   
     941;   839.7202;           28   
     942;   840.5955;           27   
     943;   841.4708;           30   
     944;   842.3460;           30   
     945;   843.2213;           20   
     946;   844.0966;           27   
     947;   844.9719;           21   
     948;   845.8471;           17   
     949;   846.7224;           28   
     950;   847.5977;           17   
     951;   848.4730;           14   
     952;   849.3482;           14   
     953;   850.2235;           25   
     954;   851.0988;           15   
     955;   851.9741;           25   
     956;   852.8493;           23   
     957;   853.7246;           21   
     958;   854.5999;           16   
     959;   855.4752;           24   
     960;   856.3504;           26   
     961;   857.2257;           24   
     962;   858.1010;           25   
     963;   858.9763;           17   
     964;   859.8515;           22   
     965;   860.7268;           24   
     966;   861.6021;           35   
     967;   862.4774;           21   
     968;   863.3526;           27   
     969;   864.2279;           21   
     970;   865.1032;           25   
     971;   865.9785;           24   
     972;   866.8537;           23   
     973;   867.7290;           17   
     974;   868.6043;           15   
     975;   869.4796;           21   
     976;   870.3548;           15   
     977;   871.2301;           19   
     978;   872.1054;           23   
     979;   872.9807;           26   
     980;   873.8559;           32   
     981;   874.7312;           19   
     982;   875.6065;           24   
     983;   876.4818;           15   
     984;   877.3570;           28   
     985;   878.2323;           20   
     986;   879.1076;           19   
     987;   879.9829;           29   
     988;   880.8581;           27   
     989;   881.7334;           22   
     990;   882.6087;           22   
     991;   883.4840;           13   
     992;   884.3592;           17   
     993;   885.2345;           22   
     994;   886.1098;           15   
     995;   886.9851;           24   
     996;   887.8603;           13   
     997;   888.7356;           18   
     998;   889.6109;           27   
     999;   890.4862;           24   
    1000;   891.3614;           19   
    1001;   892.2367;           25   
    1002;   893.1120;           21   
    1003;   893.9873;           16   
    1004;   894.8625;           19   
    1005;   895.7378;           27   
    1006;   896.6131;           23   
    1007;   897.4884;           13   
    1008;   898.3636;           13   
    1009;   899.2389;           20   
    1010;   900.1142;           15   
    1011;   900.9895;            8   
    1012;   901.8647;           23   
    1013;   902.7400;           20   
    1014;   903.6153;           32   
    1015;   904.4906;           24   
    1016;   905.3658;           22   
    1017;   906.2411;           10   
    1018;   907.1164;           17   
    1019;   907.9917;           17   
    1020;   908.8669;           19   
    1021;   909.7422;           20   
    1022;   910.6175;           27   
    1023;   911.4928;           50   
    1024;   912.3680;           76   
    1025;   913.2433;           61   
    1026;   914.1186;           25   
    1027;   914.9939;           19   
    1028;   915.8691;           14   
    1029;   916.7444;           22   
    1030;   917.6197;           15   
    1031;   918.4950;           18   
    1032;   919.3702;           15   
    1033;   920.2455;           15   
    1034;   921.1208;           12   
    1035;   921.9961;           15   
    1036;   922.8713;           19   
    1037;   923.7466;           24   
    1038;   924.6219;           13   
    1039;   925.4972;           16   
    1040;   926.3724;           20   
    1041;   927.2477;           18   
    1042;   928.1230;           19   
    1043;   928.9983;           16   
    1044;   929.8735;           26   
    1045;   930.7488;           14   
    1046;   931.6241;           15   
    1047;   932.4994;           15   
    1048;   933.3746;           25   
    1049;   934.2499;           19   
    1050;   935.1252;           24   
    1051;   936.0005;           27   
    1052;   936.8757;           17   
    1053;   937.7510;           16   
    1054;   938.6263;           18   
    1055;   939.5016;           18   
    1056;   940.3768;           16   
    1057;   941.2521;           15   
    1058;   942.1274;           26   
    1059;   943.0027;           19   
    1060;   943.8779;           23   
    1061;   944.7532;           15   
    1062;   945.6285;           18   
    1063;   946.5038;           19   
    1064;   947.3790;           17   
    1065;   948.2543;           17   
    1066;   949.1296;           14   
    1067;   950.0049;           25   
    1068;   950.8801;           18   
    1069;   951.7554;           22   
    1070;   952.6307;           17   
    1071;   953.5060;           24   
    1072;   954.3812;           10   
    1073;   955.2565;           19   
    1074;   956.1318;           22   
    1075;   957.0071;           16   
    1076;   957.8823;           16   
    1077;   958.7576;           21   
    1078;   959.6329;           20   
    1079;   960.5082;           23   
    1080;   961.3834;           13   
    1081;   962.2587;           11   
    1082;   963.1340;           18   
    1083;   964.0093;           20   
    1084;   964.8845;           24   
    1085;   965.7598;           29   
    1086;   966.6351;           19   
    1087;   967.5104;           27   
    1088;   968.3856;           17   
    1089;   969.2609;           35   
    1090;   970.1362;           51   
    1091;   971.0115;           38   
    1092;   971.8867;           22   
    1093;   972.7620;           26   
    1094;   973.6373;           12   
    1095;   974.5126;           22   
    1096;   975.3878;           17   
    1097;   976.2631;           19   
    1098;   977.1384;           13   
    1099;   978.0137;           20   
    1100;   978.8889;            9   
    1101;   979.7642;           14   
    1102;   980.6395;           19   
    1103;   981.5148;           13   
    1104;   982.3900;           16   
    1105;   983.2653;           12   
    1106;   984.1406;           13   
    1107;   985.0159;           15   
    1108;   985.8911;           17   
    1109;   986.7664;           14   
    1110;   987.6417;           19   
    1111;   988.5170;           18   
    1112;   989.3922;           25   
    1113;   990.2675;           21   
    1114;   991.1428;           11   
    1115;   992.0181;           13   
    1116;   992.8933;           24   
    1117;   993.7686;           15   
    1118;   994.6439;           14   
    1119;   995.5192;           12   
    1120;   996.3944;           14   
    1121;   997.2697;           24   
    1122;   998.1450;           15   
    1123;   999.0203;           16   
    1124;   999.8955;           14   
    1125;  1000.7708;           12   
    1126;  1001.6461;           25   
    1127;  1002.5214;           16   
    1128;  1003.3966;            7   
    1129;  1004.2719;           19   
    1130;  1005.1472;           10   
    1131;  1006.0225;           17   
    1132;  1006.8977;           16   
    1133;  1007.7730;           16   
    1134;  1008.6483;           16   
    1135;  1009.5236;           16   
    1136;  1010.3988;           17   
    1137;  1011.2741;           12   
    1138;  1012.1494;           18   
    1139;  1013.0247;           17   
    1140;  1013.8999;           21   
    1141;  1014.7752;           17   
    1142;  1015.6505;           21   
    1143;  1016.5258;           14   
    1144;  1017.4010;           19   
    1145;  1018.2763;           12   
    1146;  1019.1516;           15   
    1147;  1020.0269;           18   
    1148;  1020.9021;           13   
    1149;  1021.7774;           20   
    1150;  1022.6527;           20   
    1151;  1023.5280;           15   
    1152;  1024.4032;           19   
    1153;  1025.2785;           16   
    1154;  1026.1538;           18   
    1155;  1027.0291;           20   
    1156;  1027.9043;           21   
    1157;  1028.7796;           11   
    1158;  1029.6549;            8   
    1159;  1030.5302;           12   
    1160;  1031.4054;           12   
    1161;  1032.2807;           10   
    1162;  1033.1560;            8   
    1163;  1034.0313;           17   
    1164;  1034.9065;           11   
    1165;  1035.7818;           18   
    1166;  1036.6571;           17   
    1167;  1037.5324;           20   
    1168;  1038.4076;           12   
    1169;  1039.2829;           14   
    1170;  1040.1582;           15   
    1171;  1041.0335;           23   
    1172;  1041.9087;            8   
    1173;  1042.7840;           17   
    1174;  1043.6593;           10   
    1175;  1044.5346;           15   
    1176;  1045.4098;           17   
    1177;  1046.2851;           18   
    1178;  1047.1604;           19   
    1179;  1048.0357;           13   
    1180;  1048.9109;           16   
    1181;  1049.7862;           17   
    1182;  1050.6615;           18   
    1183;  1051.5368;           17   
    1184;  1052.4120;           26   
    1185;  1053.2873;           13   
    1186;  1054.1626;           18   
    1187;  1055.0379;           15   
    1188;  1055.9131;           16   
    1189;  1056.7884;           19   
    1190;  1057.6637;           22   
    1191;  1058.5390;           10   
    1192;  1059.4142;           17   
    1193;  1060.2895;           17   
    1194;  1061.1648;            7   
    1195;  1062.0401;           15   
    1196;  1062.9153;           17   
    1197;  1063.7906;           13   
    1198;  1064.6659;           17   
    1199;  1065.5412;           19   
    1200;  1066.4164;           17   
    1201;  1067.2917;           11   
    1202;  1068.1670;           22   
    1203;  1069.0423;           17   
    1204;  1069.9175;           15   
    1205;  1070.7928;           18   
    1206;  1071.6681;           19   
    1207;  1072.5434;           14   
    1208;  1073.4186;           18   
    1209;  1074.2939;           26   
    1210;  1075.1692;           16   
    1211;  1076.0445;           11   
    1212;  1076.9197;           16   
    1213;  1077.7950;           14   
    1214;  1078.6703;           19   
    1215;  1079.5456;           20   
    1216;  1080.4208;           25   
    1217;  1081.2961;           23   
    1218;  1082.1714;           15   
    1219;  1083.0467;           19   
    1220;  1083.9219;           24   
    1221;  1084.7972;           11   
    1222;  1085.6725;           17   
    1223;  1086.5478;           12   
    1224;  1087.4230;           10   
    1225;  1088.2983;           11   
    1226;  1089.1736;           15   
    1227;  1090.0489;           11   
    1228;  1090.9241;           14   
    1229;  1091.7994;           14   
    1230;  1092.6747;           20   
    1231;  1093.5500;           16   
    1232;  1094.4252;           22   
    1233;  1095.3005;           19   
    1234;  1096.1758;           20   
    1235;  1097.0511;           24   
    1236;  1097.9263;           13   
    1237;  1098.8016;           21   
    1238;  1099.6769;           13   
    1239;  1100.5522;           18   
    1240;  1101.4274;           14   
    1241;  1102.3027;           16   
    1242;  1103.1780;            8   
    1243;  1104.0533;           14   
    1244;  1104.9285;           15   
    1245;  1105.8038;           11   
    1246;  1106.6791;            9   
    1247;  1107.5544;           15   
    1248;  1108.4296;           15   
    1249;  1109.3049;           11   
    1250;  1110.1802;           14   
    1251;  1111.0555;           21   
    1252;  1111.9307;           15   
    1253;  1112.8060;           20   
    1254;  1113.6813;           19   
    1255;  1114.5566;           13   
    1256;  1115.4318;           19   
    1257;  1116.3071;           14   
    1258;  1117.1824;           22   
    1259;  1118.0577;           16   
    1260;  1118.9329;           14   
    1261;  1119.8082;           34   
    1262;  1120.6835;           40   
    1263;  1121.5588;           42   
    1264;  1122.4340;           25   
    1265;  1123.3093;           16   
    1266;  1124.1846;           12   
    1267;  1125.0599;           26   
    1268;  1125.9351;           13   
    1269;  1126.8104;           14   
    1270;  1127.6857;           25   
    1271;  1128.5610;           21   
    1272;  1129.4362;           18   
    1273;  1130.3115;           11   
    1274;  1131.1868;           14   
    1275;  1132.0621;           15   
    1276;  1132.9373;           24   
    1277;  1133.8126;           17   
    1278;  1134.6879;           12   
    1279;  1135.5632;           19   
    1280;  1136.4384;           12   
    1281;  1137.3137;           12   
    1282;  1138.1890;           15   
    1283;  1139.0643;           22   
    1284;  1139.9395;           17   
    1285;  1140.8148;           15   
    1286;  1141.6901;           18   
    1287;  1142.5654;           11   
    1288;  1143.4406;           17   
    1289;  1144.3159;           13   
    1290;  1145.1912;           17   
    1291;  1146.0665;           15   
    1292;  1146.9417;           14   
    1293;  1147.8170;           14   
    1294;  1148.6923;           17   
    1295;  1149.5676;           19   
    1296;  1150.4428;           15   
    1297;  1151.3181;           16   
    1298;  1152.1934;           11   
    1299;  1153.0687;           18   
    1300;  1153.9439;           16   
    1301;  1154.8192;           19   
    1302;  1155.6945;           26   
    1303;  1156.5698;           17   
    1304;  1157.4450;           11   
    1305;  1158.3203;           20   
    1306;  1159.1956;           19   
    1307;  1160.0709;           10   
    1308;  1160.9461;           11   
    1309;  1161.8214;           15   
    1310;  1162.6967;           16   
    1311;  1163.5720;           12   
    1312;  1164.4472;           19   
    1313;  1165.3225;           16   
    1314;  1166.1978;           21   
    1315;  1167.0731;           16   
    1316;  1167.9483;           17   
    1317;  1168.8236;           13   
    1318;  1169.6989;           13   
    1319;  1170.5742;           16   
    1320;  1171.4494;           21   
    1321;  1172.3247;           16   
    1322;  1173.2000;           19   
    1323;  1174.0753;           21   
    1324;  1174.9505;           11   
    1325;  1175.8258;           18   
    1326;  1176.7011;           19   
    1327;  1177.5764;           12   
    1328;  1178.4516;           12   
    1329;  1179.3269;           13   
    1330;  1180.2022;           21   
    1331;  1181.0775;           14   
    1332;  1181.9527;           17   
    1333;  1182.8280;           24   
    1334;  1183.7033;           12   
    1335;  1184.5786;           10   
    1336;  1185.4538;           23   
    1337;  1186.3291;           13   
    1338;  1187.2044;           19   
    1339;  1188.0797;           18   
    1340;  1188.9549;           25   
    1341;  1189.8302;           14   
    1342;  1190.7055;           24   
    1343;  1191.5808;           16   
    1344;  1192.4560;           16   
    1345;  1193.3313;           14   
    1346;  1194.2066;           21   
    1347;  1195.0819;           12   
    1348;  1195.9571;           18   
    1349;  1196.8324;           14   
    1350;  1197.7077;           14   
    1351;  1198.5830;           15   
    1352;  1199.4582;           22   
    1353;  1200.3335;            9   
    1354;  1201.2088;           23   
    1355;  1202.0841;           16   
    1356;  1202.9593;           16   
    1357;  1203.8346;           10   
    1358;  1204.7099;           20   
    1359;  1205.5852;           16   
    1360;  1206.4604;           20   
    1361;  1207.3357;           14   
    1362;  1208.2110;           14   
    1363;  1209.0863;           11   
    1364;  1209.9615;            9   
    1365;  1210.8368;           14   
    1366;  1211.7121;            9   
    1367;  1212.5874;           19   
    1368;  1213.4626;           14   
    1369;  1214.3379;           18   
    1370;  1215.2132;           14   
    1371;  1216.0885;           16   
    1372;  1216.9637;           21   
    1373;  1217.8390;           16   
    1374;  1218.7143;           16   
    1375;  1219.5896;           14   
    1376;  1220.4648;           24   
    1377;  1221.3401;           19   
    1378;  1222.2154;           11   
    1379;  1223.0907;           20   
    1380;  1223.9659;           14   
    1381;  1224.8412;           18   
    1382;  1225.7165;           18   
    1383;  1226.5918;           15   
    1384;  1227.4670;           13   
    1385;  1228.3423;           10   
    1386;  1229.2176;           16   
    1387;  1230.0929;           16   
    1388;  1230.9681;           18   
    1389;  1231.8434;           22   
    1390;  1232.7187;           16   
    1391;  1233.5940;           16   
    1392;  1234.4692;           10   
    1393;  1235.3445;           15   
    1394;  1236.2198;           15   
    1395;  1237.0951;           26   
    1396;  1237.9703;           34   
    1397;  1238.8456;           21   
    1398;  1239.7209;           26   
    1399;  1240.5962;           19   
    1400;  1241.4714;           16   
    1401;  1242.3467;           10   
    1402;  1243.2220;           19   
    1403;  1244.0973;           21   
    1404;  1244.9725;           14   
    1405;  1245.8478;            8   
    1406;  1246.7231;           21   
    1407;  1247.5984;           12   
    1408;  1248.4736;           12   
    1409;  1249.3489;           17   
    1410;  1250.2242;           11   
    1411;  1251.0995;           12   
    1412;  1251.9747;           18   
    1413;  1252.8500;           19   
    1414;  1253.7253;           11   
    1415;  1254.6006;           15   
    1416;  1255.4758;           11   
    1417;  1256.3511;           15   
    1418;  1257.2264;           15   
    1419;  1258.1017;            8   
    1420;  1258.9769;           16   
    1421;  1259.8522;           15   
    1422;  1260.7275;           18   
    1423;  1261.6028;           11   
    1424;  1262.4780;           13   
    1425;  1263.3533;           19   
    1426;  1264.2286;           14   
    1427;  1265.1039;           12   
    1428;  1265.9791;           12   
    1429;  1266.8544;            9   
    1430;  1267.7297;           11   
    1431;  1268.6050;           16   
    1432;  1269.4802;           15   
    1433;  1270.3555;           14   
    1434;  1271.2308;            9   
    1435;  1272.1061;           11   
    1436;  1272.9813;           11   
    1437;  1273.8566;           12   
    1438;  1274.7319;           10   
    1439;  1275.6072;           16   
    1440;  1276.4824;           17   
    1441;  1277.3577;            8   
    1442;  1278.2330;            4   
    1443;  1279.1083;           15   
    1444;  1279.9835;           14   
    1445;  1280.8588;           21   
    1446;  1281.7341;           12   
    1447;  1282.6094;           11   
    1448;  1283.4846;            9   
    1449;  1284.3599;           10   
    1450;  1285.2352;            5   
    1451;  1286.1105;            9   
    1452;  1286.9857;           15   
    1453;  1287.8610;           13   
    1454;  1288.7363;            9   
    1455;  1289.6116;            5   
    1456;  1290.4868;           12   
    1457;  1291.3621;            7   
    1458;  1292.2374;           11   
    1459;  1293.1127;            7   
    1460;  1293.9879;           10   
    1461;  1294.8632;            8   
    1462;  1295.7385;           14   
    1463;  1296.6138;            9   
    1464;  1297.4890;            6   
    1465;  1298.3643;           13   
    1466;  1299.2396;            7   
    1467;  1300.1149;            9   
    1468;  1300.9901;            3   
    1469;  1301.8654;            6   
    1470;  1302.7407;           10   
    1471;  1303.6160;            9   
    1472;  1304.4912;            6   
    1473;  1305.3665;            9   
    1474;  1306.2418;           15   
    1475;  1307.1171;           14   
    1476;  1307.9923;           10   
    1477;  1308.8676;            7   
    1478;  1309.7429;           10   
    1479;  1310.6182;            9   
    1480;  1311.4934;            9   
    1481;  1312.3687;            6   
    1482;  1313.2440;           11   
    1483;  1314.1193;            9   
    1484;  1314.9945;            9   
    1485;  1315.8698;            9   
    1486;  1316.7451;           14   
    1487;  1317.6204;            8   
    1488;  1318.4956;           11   
    1489;  1319.3709;            6   
    1490;  1320.2462;           10   
    1491;  1321.1215;           14   
    1492;  1321.9967;           11   
    1493;  1322.8720;            7   
    1494;  1323.7473;           10   
    1495;  1324.6226;           11   
    1496;  1325.4978;            8   
    1497;  1326.3731;            9   
    1498;  1327.2484;            7   
    1499;  1328.1237;            2   
    1500;  1328.9989;           10   
    1501;  1329.8742;            9   
    1502;  1330.7495;            3   
    1503;  1331.6248;            7   
    1504;  1332.5000;            8   
    1505;  1333.3753;           11   
    1506;  1334.2506;            6   
    1507;  1335.1259;            9   
    1508;  1336.0011;            6   
    1509;  1336.8764;           10   
    1510;  1337.7517;            3   
    1511;  1338.6270;            5   
    1512;  1339.5022;            4   
    1513;  1340.3775;            6   
    1514;  1341.2528;           10   
    1515;  1342.1281;            6   
    1516;  1343.0033;           14   
    1517;  1343.8786;           11   
    1518;  1344.7539;            8   
    1519;  1345.6292;           12   
    1520;  1346.5044;           11   
    1521;  1347.3797;           11   
    1522;  1348.2550;            3   
    1523;  1349.1303;            8   
    1524;  1350.0055;            9   
    1525;  1350.8808;            9   
    1526;  1351.7561;            3   
    1527;  1352.6314;           15   
    1528;  1353.5066;            6   
    1529;  1354.3819;            6   
    1530;  1355.2572;            9   
    1531;  1356.1325;            6   
    1532;  1357.0077;            4   
    1533;  1357.8830;            5   
    1534;  1358.7583;            8   
    1535;  1359.6336;            4   
    1536;  1360.5088;            6   
    1537;  1361.3841;           11   
    1538;  1362.2594;            9   
    1539;  1363.1347;            6   
    1540;  1364.0099;            7   
    1541;  1364.8852;            7   
    1542;  1365.7605;            4   
    1543;  1366.6358;            7   
    1544;  1367.5110;            6   
    1545;  1368.3863;            7   
    1546;  1369.2616;           10   
    1547;  1370.1369;            6   
    1548;  1371.0121;            5   
    1549;  1371.8874;           12   
    1550;  1372.7627;            5   
    1551;  1373.6380;            5   
    1552;  1374.5132;            6   
    1553;  1375.3885;            6   
    1554;  1376.2638;            7   
    1555;  1377.1391;           14   
    1556;  1378.0143;           13   
    1557;  1378.8896;            9   
    1558;  1379.7649;            4   
    1559;  1380.6402;            2   
    1560;  1381.5154;            5   
    1561;  1382.3907;            8   
    1562;  1383.2660;            5   
    1563;  1384.1413;            2   
    1564;  1385.0165;            4   
    1565;  1385.8918;            8   
    1566;  1386.7671;           12   
    1567;  1387.6424;            9   
    1568;  1388.5176;            7   
    1569;  1389.3929;            9   
    1570;  1390.2682;            8   
    1571;  1391.1435;           10   
    1572;  1392.0187;            9   
    1573;  1392.8940;            6   
    1574;  1393.7693;            4   
    1575;  1394.6446;            2   
    1576;  1395.5198;            6   
    1577;  1396.3951;            4   
    1578;  1397.2704;            3   
    1579;  1398.1457;            3   
    1580;  1399.0209;            8   
    1581;  1399.8962;            7   
    1582;  1400.7715;           12   
    1583;  1401.6468;            6   
    1584;  1402.5220;           10   
    1585;  1403.3973;            4   
    1586;  1404.2726;            9   
    1587;  1405.1479;            4   
    1588;  1406.0231;           10   
    1589;  1406.8984;           10   
    1590;  1407.7737;           13   
    1591;  1408.6490;           13   
    1592;  1409.5242;            2   
    1593;  1410.3995;            5   
    1594;  1411.2748;            7   
    1595;  1412.1501;           12   
    1596;  1413.0253;            5   
    1597;  1413.9006;            8   
    1598;  1414.7759;            1   
    1599;  1415.6512;            2   
    1600;  1416.5264;            6   
    1601;  1417.4017;            4   
    1602;  1418.2770;            6   
    1603;  1419.1523;            6   
    1604;  1420.0275;            6   
    1605;  1420.9028;            9   
    1606;  1421.7781;            9   
    1607;  1422.6534;            9   
    1608;  1423.5286;            9   
    1609;  1424.4039;            7   
    1610;  1425.2792;            7   
    1611;  1426.1545;            8   
    1612;  1427.0297;            4   
    1613;  1427.9050;            6   
    1614;  1428.7803;            3   
    1615;  1429.6556;           10   
    1616;  1430.5308;            4   
    1617;  1431.4061;            4   
    1618;  1432.2814;            6   
    1619;  1433.1567;            6   
    1620;  1434.0319;            4   
    1621;  1434.9072;            3   
    1622;  1435.7825;            2   
    1623;  1436.6578;            4   
    1624;  1437.5330;            3   
    1625;  1438.4083;            6   
    1626;  1439.2836;            2   
    1627;  1440.1589;            2   
    1628;  1441.0341;            7   
    1629;  1441.9094;            7   
    1630;  1442.7847;            7   
    1631;  1443.6600;            7   
    1632;  1444.5352;            4   
    1633;  1445.4105;            3   
    1634;  1446.2858;            8   
    1635;  1447.1611;            6   
    1636;  1448.0363;           11   
    1637;  1448.9116;            6   
    1638;  1449.7869;            9   
    1639;  1450.6622;            6   
    1640;  1451.5374;            0   
    1641;  1452.4127;            3   
    1642;  1453.2880;            6   
    1643;  1454.1633;            9   
    1644;  1455.0385;            6   
    1645;  1455.9138;            9   
    1646;  1456.7891;           16   
    1647;  1457.6644;           18   
    1648;  1458.5396;           62   
    1649;  1459.4149;          217   
    1650;  1460.2902;          385   
    1651;  1461.1655;          428   
    1652;  1462.0407;          249   
    1653;  1462.9160;           73   
    1654;  1463.7913;           19   
    1655;  1464.6666;           13   
    1656;  1465.5418;           12   
    1657;  1466.4171;            9   
    1658;  1467.2924;            3   
    1659;  1468.1677;            3   
    1660;  1469.0429;            9   
    1661;  1469.9182;            6   
    1662;  1470.7935;            4   
    1663;  1471.6688;            1   
    1664;  1472.5440;            3   
    1665;  1473.4193;            4   
    1666;  1474.2946;            5   
    1667;  1475.1699;            4   
    1668;  1476.0451;            3   
    1669;  1476.9204;            4   
    1670;  1477.7957;            3   
    1671;  1478.6710;            3   
    1672;  1479.5462;            3   
    1673;  1480.4215;            4   
    1674;  1481.2968;            3   
    1675;  1482.1721;            7   
    1676;  1483.0473;            3   
    1677;  1483.9226;            2   
    1678;  1484.7979;            3   
    1679;  1485.6732;            5   
    1680;  1486.5484;            4   
    1681;  1487.4237;            3   
    1682;  1488.2990;            3   
    1683;  1489.1743;            2   
    1684;  1490.0495;            1   
    1685;  1490.9248;            4   
    1686;  1491.8001;            5   
    1687;  1492.6754;            3   
    1688;  1493.5506;            8   
    1689;  1494.4259;            6   
    1690;  1495.3012;            4   
    1691;  1496.1765;            7   
    1692;  1497.0517;            5   
    1693;  1497.9270;            3   
    1694;  1498.8023;            6   
    1695;  1499.6776;            2   
    1696;  1500.5528;            5   
    1697;  1501.4281;            5   
    1698;  1502.3034;            5   
    1699;  1503.1787;            4   
    1700;  1504.0539;            5   
    1701;  1504.9292;            5   
    1702;  1505.8045;            5   
    1703;  1506.6798;            5   
    1704;  1507.5550;            2   
    1705;  1508.4303;            6   
    1706;  1509.3056;           11   
    1707;  1510.1809;            9   
    1708;  1511.0561;            8   
    1709;  1511.9314;            3   
    1710;  1512.8067;            6   
    1711;  1513.6820;            4   
    1712;  1514.5572;            5   
    1713;  1515.4325;            2   
    1714;  1516.3078;            2   
    1715;  1517.1831;            4   
    1716;  1518.0583;            6   
    1717;  1518.9336;            6   
    1718;  1519.8089;            5   
    1719;  1520.6842;            9   
    1720;  1521.5594;            3   
    1721;  1522.4347;            1   
    1722;  1523.3100;            4   
    1723;  1524.1853;            6   
    1724;  1525.0605;            3   
    1725;  1525.9358;            2   
    1726;  1526.8111;            3   
    1727;  1527.6864;            6   
    1728;  1528.5616;            9   
    1729;  1529.4369;            1   
    1730;  1530.3122;            5   
    1731;  1531.1875;            5   
    1732;  1532.0627;            4   
    1733;  1532.9380;            6   
    1734;  1533.8133;            2   
    1735;  1534.6886;            3   
    1736;  1535.5638;            1   
    1737;  1536.4391;            2   
    1738;  1537.3144;            3   
    1739;  1538.1897;            3   
    1740;  1539.0649;            3   
    1741;  1539.9402;            2   
    1742;  1540.8155;            6   
    1743;  1541.6908;            5   
    1744;  1542.5660;            5   
    1745;  1543.4413;            6   
    1746;  1544.3166;            2   
    1747;  1545.1919;            3   
    1748;  1546.0671;            4   
    1749;  1546.9424;            2   
    1750;  1547.8177;            9   
    1751;  1548.6930;            3   
    1752;  1549.5682;            3   
    1753;  1550.4435;            3   
    1754;  1551.3188;            3   
    1755;  1552.1941;            1   
    1756;  1553.0693;            5   
    1757;  1553.9446;            2   
    1758;  1554.8199;            5   
    1759;  1555.6952;            0   
    1760;  1556.5704;            4   
    1761;  1557.4457;            4   
    1762;  1558.3210;            3   
    1763;  1559.1963;            3   
    1764;  1560.0715;            2   
    1765;  1560.9468;            2   
    1766;  1561.8221;            5   
    1767;  1562.6974;            2   
    1768;  1563.5726;            5   
    1769;  1564.4479;            3   
    1770;  1565.3232;            0   
    1771;  1566.1985;            3   
    1772;  1567.0737;            4   
    1773;  1567.9490;            5   
    1774;  1568.8243;            2   
    1775;  1569.6996;            5   
    1776;  1570.5748;            5   
    1777;  1571.4501;            4   
    1778;  1572.3254;            6   
    1779;  1573.2007;            2   
    1780;  1574.0759;            2   
    1781;  1574.9512;            4   
    1782;  1575.8265;            3   
    1783;  1576.7018;            3   
    1784;  1577.5770;            0   
    1785;  1578.4523;            4   
    1786;  1579.3276;            5   
    1787;  1580.2029;            3   
    1788;  1581.0781;            2   
    1789;  1581.9534;            5   
    1790;  1582.8287;            2   
    1791;  1583.7040;            5   
    1792;  1584.5792;            2   
    1793;  1585.4545;            1   
    1794;  1586.3298;            2   
    1795;  1587.2051;           13   
    1796;  1588.0803;            5   
    1797;  1588.9556;            5   
    1798;  1589.8309;            5   
    1799;  1590.7062;            4   
    1800;  1591.5814;            4   
    1801;  1592.4567;            3   
    1802;  1593.3320;            6   
    1803;  1594.2073;            1   
    1804;  1595.0825;            3   
    1805;  1595.9578;            5   
    1806;  1596.8331;            4   
    1807;  1597.7084;            5   
    1808;  1598.5836;            3   
    1809;  1599.4589;            2   
    1810;  1600.3342;            1   
    1811;  1601.2095;            5   
    1812;  1602.0847;            2   
    1813;  1602.9600;            7   
    1814;  1603.8353;            1   
    1815;  1604.7106;            2   
    1816;  1605.5858;            1   
    1817;  1606.4611;            4   
    1818;  1607.3364;            2   
    1819;  1608.2117;            2   
    1820;  1609.0869;            4   
    1821;  1609.9622;            5   
    1822;  1610.8375;            4   
    1823;  1611.7128;            1   
    1824;  1612.5880;            2   
    1825;  1613.4633;            2   
    1826;  1614.3386;            1   
    1827;  1615.2139;            2   
    1828;  1616.0891;            1   
    1829;  1616.9644;            3   
    1830;  1617.8397;            6   
    1831;  1618.7150;            4   
    1832;  1619.5902;            6   
    1833;  1620.4655;            2   
    1834;  1621.3408;            3   
    1835;  1622.2161;            3   
    1836;  1623.0913;            3   
    1837;  1623.9666;            3   
    1838;  1624.8419;            1   
    1839;  1625.7172;            2   
    1840;  1626.5924;            6   
    1841;  1627.4677;            6   
    1842;  1628.3430;            4   
    1843;  1629.2183;            2   
    1844;  1630.0935;            2   
    1845;  1630.9688;            2   
    1846;  1631.8441;            4   
    1847;  1632.7194;            1   
    1848;  1633.5946;            2   
    1849;  1634.4699;            3   
    1850;  1635.3452;            3   
    1851;  1636.2205;            3   
    1852;  1637.0957;            0   
    1853;  1637.9710;            4   
    1854;  1638.8463;            5   
    1855;  1639.7216;            2   
    1856;  1640.5968;            5   
    1857;  1641.4721;            0   
    1858;  1642.3474;            0   
    1859;  1643.2227;            1   
    1860;  1644.0979;            1   
    1861;  1644.9732;            1   
    1862;  1645.8485;            0   
    1863;  1646.7238;            2   
    1864;  1647.5990;            1   
    1865;  1648.4743;            4   
    1866;  1649.3496;            2   
    1867;  1650.2249;            4   
    1868;  1651.1001;            3   
    1869;  1651.9754;            4   
    1870;  1652.8507;            0   
    1871;  1653.7260;            3   
    1872;  1654.6012;            3   
    1873;  1655.4765;            5   
    1874;  1656.3518;            2   
    1875;  1657.2271;            1   
    1876;  1658.1023;            4   
    1877;  1658.9776;            6   
    1878;  1659.8529;            5   
    1879;  1660.7282;            2   
    1880;  1661.6034;            3   
    1881;  1662.4787;            4   
    1882;  1663.3540;            3   
    1883;  1664.2293;            5   
    1884;  1665.1045;            5   
    1885;  1665.9798;            1   
    1886;  1666.8551;            2   
    1887;  1667.7304;            1   
    1888;  1668.6056;            3   
    1889;  1669.4809;            3   
    1890;  1670.3562;            1   
    1891;  1671.2315;            0   
    1892;  1672.1067;            2   
    1893;  1672.9820;            2   
    1894;  1673.8573;            5   
    1895;  1674.7326;            2   
    1896;  1675.6078;            2   
    1897;  1676.4831;            2   
    1898;  1677.3584;            1   
    1899;  1678.2337;            2   
    1900;  1679.1089;            1   
    1901;  1679.9842;            3   
    1902;  1680.8595;            4   
    1903;  1681.7348;            0   
    1904;  1682.6100;            1   
    1905;  1683.4853;            4   
    1906;  1684.3606;            2   
    1907;  1685.2359;            2   
    1908;  1686.1111;            2   
    1909;  1686.9864;            5   
    1910;  1687.8617;            2   
    1911;  1688.7370;            1   
    1912;  1689.6122;            2   
    1913;  1690.4875;            3   
    1914;  1691.3628;            0   
    1915;  1692.2381;            0   
    1916;  1693.1133;            2   
    1917;  1693.9886;            3   
    1918;  1694.8639;            2   
    1919;  1695.7392;            0   
    1920;  1696.6144;            1   
    1921;  1697.4897;            0   
    1922;  1698.3650;            1   
    1923;  1699.2403;            5   
    1924;  1700.1155;            1   
    1925;  1700.9908;            1   
    1926;  1701.8661;            1   
    1927;  1702.7414;            0   
    1928;  1703.6166;            2   
    1929;  1704.4919;            3   
    1930;  1705.3672;            0   
    1931;  1706.2425;            4   
    1932;  1707.1177;            2   
    1933;  1707.9930;            4   
    1934;  1708.8683;            3   
    1935;  1709.7436;            3   
    1936;  1710.6188;            1   
    1937;  1711.4941;            1   
    1938;  1712.3694;            3   
    1939;  1713.2447;            1   
    1940;  1714.1199;            2   
    1941;  1714.9952;            4   
    1942;  1715.8705;            1   
    1943;  1716.7458;            1   
    1944;  1717.6210;            1   
    1945;  1718.4963;            1   
    1946;  1719.3716;            1   
    1947;  1720.2469;            1   
    1948;  1721.1221;            4   
    1949;  1721.9974;            1   
    1950;  1722.8727;            0   
    1951;  1723.7480;            2   
    1952;  1724.6232;            2   
    1953;  1725.4985;            1   
    1954;  1726.3738;            2   
    1955;  1727.2491;            5   
    1956;  1728.1243;           10   
    1957;  1728.9996;            9   
    1958;  1729.8749;            6   
    1959;  1730.7502;            3   
    1960;  1731.6254;            0   
    1961;  1732.5007;            4   
    1962;  1733.3760;            2   
    1963;  1734.2513;            1   
    1964;  1735.1265;            3   
    1965;  1736.0018;            2   
    1966;  1736.8771;            0   
    1967;  1737.7524;            2   
    1968;  1738.6276;            2   
    1969;  1739.5029;            1   
    1970;  1740.3782;            1   
    1971;  1741.2535;            2   
    1972;  1742.1287;            2   
    1973;  1743.0040;            0   
    1974;  1743.8793;            3   
    1975;  1744.7546;            1   
    1976;  1745.6298;            2   
    1977;  1746.5051;            1   
    1978;  1747.3804;            1   
    1979;  1748.2557;            1   
    1980;  1749.1309;            0   
    1981;  1750.0062;            0   
    1982;  1750.8815;            0   
    1983;  1751.7568;            0   
    1984;  1752.6320;            0   
    1985;  1753.5073;            0   
    1986;  1754.3826;            0   
    1987;  1755.2579;            0   
    1988;  1756.1331;            0   
    1989;  1757.0084;            0   
    1990;  1757.8837;            0   
    1991;  1758.7590;            0   
    1992;  1759.6342;            0   
    1993;  1760.5095;            0   
    1994;  1761.3848;            0   
    1995;  1762.2601;            0   
    1996;  1763.1353;            0   
    1997;  1764.0106;            0   
    1998;  1764.8859;            0   
    1999;  1765.7612;            0   
    2000;  1766.6364;            0   
    2001;  1767.5117;            0   
    2002;  1768.3870;            0   
    2003;  1769.2623;            0   
    2004;  1770.1375;            0   
    2005;  1771.0128;            0   
    2006;  1771.8881;            0   
    2007;  1772.7634;            0   
    2008;  1773.6386;            0   
    2009;  1774.5139;            0   
    2010;  1775.3892;            0   
    2011;  1776.2645;            0   
    2012;  1777.1397;            0   
    2013;  1778.0150;            0   
    2014;  1778.8903;            0   
    2015;  1779.7656;            0   
    2016;  1780.6408;            0   
    2017;  1781.5161;            0   
    2018;  1782.3914;            0   
    2019;  1783.2667;            0   
    2020;  1784.1419;            0   
    2021;  1785.0172;            0   
    2022;  1785.8925;            0   
    2023;  1786.7678;            0   
    2024;  1787.6430;            0   
    2025;  1788.5183;            0   
    2026;  1789.3936;            0   
    2027;  1790.2689;            0   
    2028;  1791.1441;            0   
    2029;  1792.0194;            0   
    2030;  1792.8947;            0   
    2031;  1793.7700;            0   
    2032;  1794.6452;            0   
    2033;  1795.5205;            0   
    2034;  1796.3958;            0   
    2035;  1797.2711;            0   
    2036;  1798.1463;            0   
    2037;  1799.0216;            0   
    2038;  1799.8969;            0   
    2039;  1800.7722;            0   
    2040;  1801.6474;            0   
    2041;  1802.5227;            0   
    2042;  1803.3980;            0   
    2043;  1804.2733;            0   
    2044;  1805.1485;            0   
    2045;  1806.0238;            0   
    2046;  1806.8991;            0   
    2047;  1807.7744;            0   
    2048;  1808.6496;            0   
ROI Nummer; Anfangskanal; Endkanal; Anfangsenergie keV ; Endenergie keV; Nettoimpulse; Bruttoimpulse; Untergrundimpulse
In den Daten wurden keine Linien gefunden
ROI Nummer; prozentualer Fehler der Lage; Lage keV; FWHM keV; FWTM keV; FWTM/FWHM Verhltnis; H/L Verhltnis
No Peak records found in data.
Name; Energie keV; Flags; Aktivitt uCi/Unit; Aktivittsfehler %; NWG uCi/Unit; MDA Error %
Es wurden keine Nuklidergebnisse gefunden.
Name; Erwartete Endergie keV; Gemessene Energie keV; Differenz von erwarteter keV; FWHM; Flags; Aktivitt uCi/Unit; Aktivittsfehler %
Es wurden keine Nuklidergebnisse gefunden.
