Kanal;   Energie(keV); Impulse
       1;    16.9617;         5521   
       2;    17.8370;         5517   
       3;    18.7122;         5246   
       4;    19.5875;         5197   
       5;    20.4628;         5134   
       6;    21.3381;         5068   
       7;    22.2133;         4855   
       8;    23.0886;         4732   
       9;    23.9639;         4720   
      10;    24.8392;         4709   
      11;    25.7144;         4595   
      12;    26.5897;         4542   
      13;    27.4650;         4489   
      14;    28.3403;         4467   
      15;    29.2155;         4400   
      16;    30.0908;         4396   
      17;    30.9661;         4312   
      18;    31.8414;         4436   
      19;    32.7166;         4196   
      20;    33.5919;         4222   
      21;    34.4672;         4091   
      22;    35.3425;         4188   
      23;    36.2177;         4130   
      24;    37.0930;         4068   
      25;    37.9683;         3941   
      26;    38.8436;         4043   
      27;    39.7188;         3922   
      28;    40.5941;         4009   
      29;    41.4694;         4147   
      30;    42.3447;         4030   
      31;    43.2199;         4065   
      32;    44.0952;         3950   
      33;    44.9705;         3929   
      34;    45.8458;         4012   
      35;    46.7210;         3953   
      36;    47.5963;         4074   
      37;    48.4716;         3874   
      38;    49.3469;         4002   
      39;    50.2221;         3896   
      40;    51.0974;         3917   
      41;    51.9727;         3931   
      42;    52.8480;         3886   
      43;    53.7232;         3866   
      44;    54.5985;         3906   
      45;    55.4738;         3843   
      46;    56.3491;         3892   
      47;    57.2243;         3895   
      48;    58.0996;         3880   
      49;    58.9749;         3869   
      50;    59.8502;         3988   
      51;    60.7254;         3816   
      52;    61.6007;         4047   
      53;    62.4760;         3779   
      54;    63.3513;         3937   
      55;    64.2265;         3926   
      56;    65.1018;         3899   
      57;    65.9771;         4009   
      58;    66.8524;         3978   
      59;    67.7276;         3873   
      60;    68.6029;         4013   
      61;    69.4782;         3824   
      62;    70.3535;         3899   
      63;    71.2287;         3940   
      64;    72.1040;         3886   
      65;    72.9793;         3945   
      66;    73.8546;         4104   
      67;    74.7298;         4260   
      68;    75.6051;         4259   
      69;    76.4804;         4422   
      70;    77.3557;         4363   
      71;    78.2309;         4090   
      72;    79.1062;         3904   
      73;    79.9815;         3871   
      74;    80.8568;         4093   
      75;    81.7320;         3994   
      76;    82.6073;         4061   
      77;    83.4826;         4058   
      78;    84.3579;         4138   
      79;    85.2331;         4145   
      80;    86.1084;         4226   
      81;    86.9837;         4252   
      82;    87.8590;         4140   
      83;    88.7342;         4062   
      84;    89.6095;         4079   
      85;    90.4848;         4027   
      86;    91.3601;         4055   
      87;    92.2353;         3969   
      88;    93.1106;         3924   
      89;    93.9859;         3967   
      90;    94.8612;         4053   
      91;    95.7364;         3994   
      92;    96.6117;         4046   
      93;    97.4870;         3920   
      94;    98.3623;         3960   
      95;    99.2375;         4059   
      96;   100.1128;         4096   
      97;   100.9881;         4020   
      98;   101.8634;         4016   
      99;   102.7386;         4102   
     100;   103.6139;         3974   
     101;   104.4892;         4157   
     102;   105.3645;         4010   
     103;   106.2397;         4088   
     104;   107.1150;         4001   
     105;   107.9903;         4047   
     106;   108.8656;         4169   
     107;   109.7408;         4040   
     108;   110.6161;         4169   
     109;   111.4914;         4142   
     110;   112.3667;         4066   
     111;   113.2419;         4099   
     112;   114.1172;         4161   
     113;   114.9925;         4196   
     114;   115.8678;         4085   
     115;   116.7430;         4111   
     116;   117.6183;         4156   
     117;   118.4936;         4122   
     118;   119.3689;         4201   
     119;   120.2441;         4370   
     120;   121.1194;         4380   
     121;   121.9947;         5106   
     122;   122.8700;         6663   
     123;   123.7452;         6592   
     124;   124.6205;         4824   
     125;   125.4958;         4271   
     126;   126.3711;         4248   
     127;   127.2463;         4266   
     128;   128.1216;         4223   
     129;   128.9969;         4238   
     130;   129.8722;         4183   
     131;   130.7474;         4194   
     132;   131.6227;         4153   
     133;   132.4980;         4202   
     134;   133.3733;         4200   
     135;   134.2485;         4185   
     136;   135.1238;         4150   
     137;   135.9991;         4251   
     138;   136.8744;         4221   
     139;   137.7496;         4260   
     140;   138.6249;         4239   
     141;   139.5002;         4197   
     142;   140.3755;         4287   
     143;   141.2507;         4330   
     144;   142.1260;         4181   
     145;   143.0013;         4114   
     146;   143.8766;         4292   
     147;   144.7518;         4269   
     148;   145.6271;         4199   
     149;   146.5024;         4342   
     150;   147.3777;         4287   
     151;   148.2529;         4279   
     152;   149.1282;         4342   
     153;   150.0035;         4166   
     154;   150.8788;         4232   
     155;   151.7540;         4174   
     156;   152.6293;         4182   
     157;   153.5046;         4284   
     158;   154.3799;         4156   
     159;   155.2551;         4339   
     160;   156.1304;         4123   
     161;   157.0057;         4406   
     162;   157.8810;         4310   
     163;   158.7562;         4241   
     164;   159.6315;         4154   
     165;   160.5068;         4228   
     166;   161.3821;         4224   
     167;   162.2573;         4284   
     168;   163.1326;         4314   
     169;   164.0079;         4321   
     170;   164.8832;         4283   
     171;   165.7584;         4215   
     172;   166.6337;         4249   
     173;   167.5090;         4282   
     174;   168.3843;         4281   
     175;   169.2595;         4298   
     176;   170.1348;         4384   
     177;   171.0101;         4338   
     178;   171.8854;         4275   
     179;   172.7606;         4441   
     180;   173.6359;         4265   
     181;   174.5112;         4230   
     182;   175.3865;         4298   
     183;   176.2617;         4384   
     184;   177.1370;         4460   
     185;   178.0123;         4380   
     186;   178.8876;         4359   
     187;   179.7628;         4289   
     188;   180.6381;         4397   
     189;   181.5134;         4540   
     190;   182.3887;         4681   
     191;   183.2639;         4716   
     192;   184.1392;         4683   
     193;   185.0145;         4829   
     194;   185.8898;         4915   
     195;   186.7650;         4955   
     196;   187.6403;         5009   
     197;   188.5156;         5153   
     198;   189.3909;         5101   
     199;   190.2661;         5130   
     200;   191.1414;         5025   
     201;   192.0167;         4975   
     202;   192.8920;         5075   
     203;   193.7672;         5185   
     204;   194.6425;         5062   
     205;   195.5178;         4945   
     206;   196.3931;         4980   
     207;   197.2683;         5095   
     208;   198.1436;         5116   
     209;   199.0189;         4937   
     210;   199.8942;         5031   
     211;   200.7694;         5006   
     212;   201.6447;         4981   
     213;   202.5200;         5028   
     214;   203.3953;         5008   
     215;   204.2705;         5093   
     216;   205.1458;         5056   
     217;   206.0211;         4974   
     218;   206.8964;         4907   
     219;   207.7716;         4977   
     220;   208.6469;         4950   
     221;   209.5222;         4935   
     222;   210.3975;         5043   
     223;   211.2727;         5012   
     224;   212.1480;         4923   
     225;   213.0233;         5029   
     226;   213.8986;         4863   
     227;   214.7738;         4924   
     228;   215.6491;         4895   
     229;   216.5244;         4940   
     230;   217.3997;         4958   
     231;   218.2749;         5019   
     232;   219.1502;         4974   
     233;   220.0255;         4988   
     234;   220.9008;         5021   
     235;   221.7760;         5041   
     236;   222.6513;         4895   
     237;   223.5266;         5014   
     238;   224.4019;         5051   
     239;   225.2771;         4776   
     240;   226.1524;         4970   
     241;   227.0277;         5038   
     242;   227.9030;         4890   
     243;   228.7782;         4985   
     244;   229.6535;         4901   
     245;   230.5288;         4878   
     246;   231.4041;         4904   
     247;   232.2793;         4958   
     248;   233.1546;         4936   
     249;   234.0299;         4902   
     250;   234.9052;         4958   
     251;   235.7804;         4917   
     252;   236.6557;         4776   
     253;   237.5310;         4941   
     254;   238.4063;         4983   
     255;   239.2815;         4931   
     256;   240.1568;         5007   
     257;   241.0321;         4881   
     258;   241.9074;         4895   
     259;   242.7826;         5012   
     260;   243.6579;         4880   
     261;   244.5332;         5379   
     262;   245.4085;         5505   
     263;   246.2837;         5306   
     264;   247.1590;         4988   
     265;   248.0343;         4848   
     266;   248.9096;         4838   
     267;   249.7848;         4743   
     268;   250.6601;         4895   
     269;   251.5354;         4843   
     270;   252.4107;         4936   
     271;   253.2859;         4948   
     272;   254.1612;         4807   
     273;   255.0365;         4789   
     274;   255.9118;         4929   
     275;   256.7870;         4900   
     276;   257.6623;         4735   
     277;   258.5376;         4825   
     278;   259.4129;         4737   
     279;   260.2881;         4859   
     280;   261.1634;         4846   
     281;   262.0387;         4921   
     282;   262.9140;         4766   
     283;   263.7892;         4743   
     284;   264.6645;         4857   
     285;   265.5398;         4761   
     286;   266.4151;         4882   
     287;   267.2903;         4813   
     288;   268.1656;         4789   
     289;   269.0409;         4830   
     290;   269.9162;         4656   
     291;   270.7914;         4801   
     292;   271.6667;         4770   
     293;   272.5420;         4710   
     294;   273.4173;         4879   
     295;   274.2925;         4698   
     296;   275.1678;         4913   
     297;   276.0431;         4821   
     298;   276.9184;         4791   
     299;   277.7936;         4848   
     300;   278.6689;         4748   
     301;   279.5442;         4850   
     302;   280.4195;         4653   
     303;   281.2947;         4767   
     304;   282.1700;         4913   
     305;   283.0453;         4758   
     306;   283.9206;         4803   
     307;   284.7958;         4793   
     308;   285.6711;         4703   
     309;   286.5464;         4768   
     310;   287.4217;         4869   
     311;   288.2969;         4946   
     312;   289.1722;         4865   
     313;   290.0475;         4782   
     314;   290.9228;         4740   
     315;   291.7980;         4940   
     316;   292.6733;         4875   
     317;   293.5486;         4693   
     318;   294.4239;         4680   
     319;   295.2991;         4766   
     320;   296.1744;         4916   
     321;   297.0497;         4804   
     322;   297.9250;         4805   
     323;   298.8002;         4774   
     324;   299.6755;         4814   
     325;   300.5508;         4802   
     326;   301.4261;         4823   
     327;   302.3013;         4827   
     328;   303.1766;         4852   
     329;   304.0519;         4792   
     330;   304.9272;         4879   
     331;   305.8024;         4808   
     332;   306.6777;         4821   
     333;   307.5530;         4817   
     334;   308.4283;         4902   
     335;   309.3035;         4687   
     336;   310.1788;         4798   
     337;   311.0541;         4853   
     338;   311.9294;         4843   
     339;   312.8046;         4806   
     340;   313.6799;         4868   
     341;   314.5552;         4837   
     342;   315.4305;         4805   
     343;   316.3057;         4709   
     344;   317.1810;         4846   
     345;   318.0563;         4837   
     346;   318.9316;         4829   
     347;   319.8068;         4850   
     348;   320.6821;         4699   
     349;   321.5574;         4773   
     350;   322.4327;         4829   
     351;   323.3079;         4900   
     352;   324.1832;         4838   
     353;   325.0585;         4832   
     354;   325.9338;         4788   
     355;   326.8090;         4605   
     356;   327.6843;         4951   
     357;   328.5596;         4845   
     358;   329.4349;         4830   
     359;   330.3101;         4808   
     360;   331.1854;         4852   
     361;   332.0607;         4920   
     362;   332.9360;         4931   
     363;   333.8112;         4915   
     364;   334.6865;         4836   
     365;   335.5618;         4982   
     366;   336.4371;         4962   
     367;   337.3123;         5031   
     368;   338.1876;         4859   
     369;   339.0629;         4948   
     370;   339.9382;         4989   
     371;   340.8134;         4970   
     372;   341.6887;         4978   
     373;   342.5640;         5136   
     374;   343.4393;         5636   
     375;   344.3145;         6585   
     376;   345.1898;         5816   
     377;   346.0651;         5180   
     378;   346.9404;         5039   
     379;   347.8156;         5150   
     380;   348.6909;         5032   
     381;   349.5662;         5070   
     382;   350.4415;         5038   
     383;   351.3167;         5103   
     384;   352.1920;         5047   
     385;   353.0673;         5098   
     386;   353.9426;         5049   
     387;   354.8178;         5092   
     388;   355.6931;         5007   
     389;   356.5684;         5052   
     390;   357.4437;         5095   
     391;   358.3189;         5104   
     392;   359.1942;         5032   
     393;   360.0695;         5125   
     394;   360.9448;         5199   
     395;   361.8200;         5078   
     396;   362.6953;         5040   
     397;   363.5706;         5154   
     398;   364.4459;         5114   
     399;   365.3211;         5212   
     400;   366.1964;         5090   
     401;   367.0717;         5225   
     402;   367.9470;         5255   
     403;   368.8222;         5124   
     404;   369.6975;         5175   
     405;   370.5728;         5069   
     406;   371.4481;         5168   
     407;   372.3233;         5320   
     408;   373.1986;         5254   
     409;   374.0739;         5381   
     410;   374.9492;         5183   
     411;   375.8244;         5297   
     412;   376.6997;         5392   
     413;   377.5750;         5223   
     414;   378.4503;         5336   
     415;   379.3255;         5305   
     416;   380.2008;         5152   
     417;   381.0761;         5338   
     418;   381.9514;         5253   
     419;   382.8266;         5357   
     420;   383.7019;         5279   
     421;   384.5772;         5378   
     422;   385.4525;         5490   
     423;   386.3277;         5396   
     424;   387.2030;         5451   
     425;   388.0783;         5439   
     426;   388.9536;         5496   
     427;   389.8288;         5467   
     428;   390.7041;         5512   
     429;   391.5794;         5502   
     430;   392.4547;         5549   
     431;   393.3299;         5569   
     432;   394.2052;         5688   
     433;   395.0805;         5630   
     434;   395.9558;         5557   
     435;   396.8310;         5625   
     436;   397.7063;         5607   
     437;   398.5816;         5574   
     438;   399.4569;         5513   
     439;   400.3321;         5573   
     440;   401.2074;         5719   
     441;   402.0827;         5661   
     442;   402.9580;         5642   
     443;   403.8332;         5813   
     444;   404.7085;         5897   
     445;   405.5838;         5679   
     446;   406.4591;         5818   
     447;   407.3343;         5830   
     448;   408.2096;         5715   
     449;   409.0849;         5869   
     450;   409.9602;         5919   
     451;   410.8354;         5989   
     452;   411.7107;         5899   
     453;   412.5860;         5959   
     454;   413.4613;         5904   
     455;   414.3365;         5877   
     456;   415.2118;         5906   
     457;   416.0871;         5991   
     458;   416.9624;         6046   
     459;   417.8376;         6041   
     460;   418.7129;         6013   
     461;   419.5882;         5914   
     462;   420.4635;         6022   
     463;   421.3387;         6143   
     464;   422.2140;         6046   
     465;   423.0893;         6094   
     466;   423.9646;         6132   
     467;   424.8398;         6164   
     468;   425.7151;         6269   
     469;   426.5904;         6177   
     470;   427.4657;         6360   
     471;   428.3409;         6249   
     472;   429.2162;         6333   
     473;   430.0915;         6360   
     474;   430.9668;         6338   
     475;   431.8420;         6481   
     476;   432.7173;         6465   
     477;   433.5926;         6458   
     478;   434.4679;         6446   
     479;   435.3431;         6673   
     480;   436.2184;         6431   
     481;   437.0937;         6617   
     482;   437.9690;         6509   
     483;   438.8442;         6694   
     484;   439.7195;         6678   
     485;   440.5948;         6762   
     486;   441.4701;         6624   
     487;   442.3453;         6728   
     488;   443.2206;         6929   
     489;   444.0959;         7048   
     490;   444.9712;         6839   
     491;   445.8464;         6933   
     492;   446.7217;         6885   
     493;   447.5970;         7027   
     494;   448.4723;         6921   
     495;   449.3475;         7009   
     496;   450.2228;         6884   
     497;   451.0981;         6968   
     498;   451.9734;         6996   
     499;   452.8486;         7135   
     500;   453.7239;         7173   
     501;   454.5992;         7261   
     502;   455.4745;         7194   
     503;   456.3497;         7159   
     504;   457.2250;         7324   
     505;   458.1003;         7260   
     506;   458.9756;         7209   
     507;   459.8508;         7268   
     508;   460.7261;         7242   
     509;   461.6014;         7315   
     510;   462.4767;         7482   
     511;   463.3519;         7345   
     512;   464.2272;         7453   
     513;   465.1025;         7335   
     514;   465.9778;         7478   
     515;   466.8530;         7339   
     516;   467.7283;         7454   
     517;   468.6036;         7340   
     518;   469.4789;         7344   
     519;   470.3541;         7354   
     520;   471.2294;         7384   
     521;   472.1047;         7325   
     522;   472.9800;         7253   
     523;   473.8552;         7058   
     524;   474.7305;         6858   
     525;   475.6058;         6633   
     526;   476.4811;         6557   
     527;   477.3563;         6315   
     528;   478.2316;         5906   
     529;   479.1069;         5796   
     530;   479.9822;         5658   
     531;   480.8574;         5456   
     532;   481.7327;         5221   
     533;   482.6080;         5174   
     534;   483.4833;         5074   
     535;   484.3585;         5033   
     536;   485.2338;         5124   
     537;   486.1091;         5067   
     538;   486.9844;         4854   
     539;   487.8596;         4771   
     540;   488.7349;         4815   
     541;   489.6102;         4571   
     542;   490.4855;         4677   
     543;   491.3607;         4631   
     544;   492.2360;         4729   
     545;   493.1113;         4569   
     546;   493.9866;         4555   
     547;   494.8618;         4422   
     548;   495.7371;         4330   
     549;   496.6124;         4366   
     550;   497.4877;         4273   
     551;   498.3629;         4329   
     552;   499.2382;         4305   
     553;   500.1135;         4288   
     554;   500.9888;         4121   
     555;   501.8640;         4189   
     556;   502.7393;         4103   
     557;   503.6146;         4192   
     558;   504.4899;         4024   
     559;   505.3651;         4171   
     560;   506.2404;         3947   
     561;   507.1157;         4057   
     562;   507.9910;         3973   
     563;   508.8662;         3997   
     564;   509.7415;         3954   
     565;   510.6168;         3958   
     566;   511.4921;         4002   
     567;   512.3673;         3928   
     568;   513.2426;         3743   
     569;   514.1179;         3744   
     570;   514.9932;         3848   
     571;   515.8684;         3788   
     572;   516.7437;         3797   
     573;   517.6190;         3796   
     574;   518.4943;         3614   
     575;   519.3695;         3721   
     576;   520.2448;         3630   
     577;   521.1201;         3534   
     578;   521.9954;         3446   
     579;   522.8706;         3527   
     580;   523.7459;         3619   
     581;   524.6212;         3432   
     582;   525.4965;         3405   
     583;   526.3717;         3366   
     584;   527.2470;         3424   
     585;   528.1223;         3344   
     586;   528.9976;         3348   
     587;   529.8728;         3171   
     588;   530.7481;         3208   
     589;   531.6234;         3269   
     590;   532.4987;         3159   
     591;   533.3739;         3150   
     592;   534.2492;         3187   
     593;   535.1245;         3089   
     594;   535.9998;         3030   
     595;   536.8750;         3068   
     596;   537.7503;         2993   
     597;   538.6256;         2973   
     598;   539.5009;         2981   
     599;   540.3761;         3045   
     600;   541.2514;         3025   
     601;   542.1267;         2720   
     602;   543.0020;         2920   
     603;   543.8772;         2870   
     604;   544.7525;         2829   
     605;   545.6278;         2812   
     606;   546.5031;         2762   
     607;   547.3783;         2827   
     608;   548.2536;         2777   
     609;   549.1289;         2692   
     610;   550.0042;         2700   
     611;   550.8794;         2688   
     612;   551.7547;         2621   
     613;   552.6300;         2688   
     614;   553.5053;         2565   
     615;   554.3805;         2618   
     616;   555.2558;         2563   
     617;   556.1311;         2500   
     618;   557.0064;         2625   
     619;   557.8816;         2497   
     620;   558.7569;         2507   
     621;   559.6322;         2409   
     622;   560.5075;         2508   
     623;   561.3827;         2432   
     624;   562.2580;         2515   
     625;   563.1333;         2400   
     626;   564.0086;         2415   
     627;   564.8838;         2381   
     628;   565.7591;         2372   
     629;   566.6344;         2425   
     630;   567.5097;         2333   
     631;   568.3849;         2413   
     632;   569.2602;         2384   
     633;   570.1355;         2356   
     634;   571.0108;         2318   
     635;   571.8860;         2334   
     636;   572.7613;         2362   
     637;   573.6366;         2342   
     638;   574.5119;         2358   
     639;   575.3871;         2288   
     640;   576.2624;         2298   
     641;   577.1377;         2353   
     642;   578.0130;         2266   
     643;   578.8882;         2227   
     644;   579.7635;         2295   
     645;   580.6388;         2237   
     646;   581.5141;         2220   
     647;   582.3893;         2141   
     648;   583.2646;         2164   
     649;   584.1399;         2204   
     650;   585.0152;         2243   
     651;   585.8904;         2178   
     652;   586.7657;         2203   
     653;   587.6410;         2193   
     654;   588.5163;         2188   
     655;   589.3915;         2183   
     656;   590.2668;         2164   
     657;   591.1421;         2228   
     658;   592.0174;         2192   
     659;   592.8926;         2044   
     660;   593.7679;         2214   
     661;   594.6432;         2128   
     662;   595.5185;         2159   
     663;   596.3937;         2165   
     664;   597.2690;         2066   
     665;   598.1443;         2192   
     666;   599.0196;         2238   
     667;   599.8948;         2065   
     668;   600.7701;         2065   
     669;   601.6454;         2057   
     670;   602.5207;         2044   
     671;   603.3959;         2087   
     672;   604.2712;         2076   
     673;   605.1465;         2105   
     674;   606.0218;         2094   
     675;   606.8970;         2101   
     676;   607.7723;         2162   
     677;   608.6476;         2018   
     678;   609.5229;         2036   
     679;   610.3981;         2018   
     680;   611.2734;         1978   
     681;   612.1487;         2025   
     682;   613.0240;         1996   
     683;   613.8992;         2060   
     684;   614.7745;         2000   
     685;   615.6498;         1944   
     686;   616.5251;         2037   
     687;   617.4003;         1978   
     688;   618.2756;         2013   
     689;   619.1509;         2013   
     690;   620.0262;         1904   
     691;   620.9014;         1962   
     692;   621.7767;         1945   
     693;   622.6520;         1966   
     694;   623.5273;         1918   
     695;   624.4025;         2003   
     696;   625.2778;         2042   
     697;   626.1531;         1849   
     698;   627.0284;         1890   
     699;   627.9036;         1908   
     700;   628.7789;         1880   
     701;   629.6542;         1921   
     702;   630.5295;         1935   
     703;   631.4047;         1858   
     704;   632.2800;         1832   
     705;   633.1553;         1872   
     706;   634.0306;         1859   
     707;   634.9058;         1889   
     708;   635.7811;         1936   
     709;   636.6564;         1876   
     710;   637.5317;         1894   
     711;   638.4069;         1824   
     712;   639.2822;         1844   
     713;   640.1575;         1833   
     714;   641.0328;         1897   
     715;   641.9080;         1834   
     716;   642.7833;         1899   
     717;   643.6586;         1890   
     718;   644.5339;         1856   
     719;   645.4091;         1862   
     720;   646.2844;         1873   
     721;   647.1597;         1818   
     722;   648.0350;         1837   
     723;   648.9102;         1837   
     724;   649.7855;         1945   
     725;   650.6608;         1856   
     726;   651.5361;         1919   
     727;   652.4113;         1939   
     728;   653.2866;         2029   
     729;   654.1619;         2115   
     730;   655.0372;         2535   
     731;   655.9124;         4022   
     732;   656.7877;         8404   
     733;   657.6630;        25821   
     734;   658.5383;        95591   
     735;   659.4135;       235174   
     736;   660.2888;       257793   
     737;   661.1641;       117029   
     738;   662.0394;        32632   
     739;   662.9146;        14686   
     740;   663.7899;        11149   
     741;   664.6652;         8712   
     742;   665.5405;         7068   
     743;   666.4157;         5613   
     744;   667.2910;         4660   
     745;   668.1663;         4409   
     746;   669.0416;         4059   
     747;   669.9168;         3838   
     748;   670.7921;         3596   
     749;   671.6674;         3561   
     750;   672.5427;         3443   
     751;   673.4179;         3362   
     752;   674.2932;         3238   
     753;   675.1685;         3387   
     754;   676.0438;         3093   
     755;   676.9190;         3220   
     756;   677.7943;         3035   
     757;   678.6696;         2932   
     758;   679.5449;         2976   
     759;   680.4201;         3036   
     760;   681.2954;         2908   
     761;   682.1707;         2920   
     762;   683.0460;         2760   
     763;   683.9212;         2769   
     764;   684.7965;         2973   
     765;   685.6718;         2814   
     766;   686.5471;         2691   
     767;   687.4223;         2765   
     768;   688.2976;         2682   
     769;   689.1729;         2655   
     770;   690.0482;         2620   
     771;   690.9234;         2554   
     772;   691.7987;         2573   
     773;   692.6740;         2530   
     774;   693.5493;         2595   
     775;   694.4245;         2444   
     776;   695.2998;         2593   
     777;   696.1751;         2518   
     778;   697.0504;         2507   
     779;   697.9256;         2550   
     780;   698.8009;         2461   
     781;   699.6762;         2492   
     782;   700.5515;         2483   
     783;   701.4267;         2524   
     784;   702.3020;         2475   
     785;   703.1773;         2449   
     786;   704.0526;         2456   
     787;   704.9278;         2435   
     788;   705.8031;         2393   
     789;   706.6784;         2381   
     790;   707.5537;         2425   
     791;   708.4289;         2334   
     792;   709.3042;         2316   
     793;   710.1795;         2379   
     794;   711.0548;         2351   
     795;   711.9300;         2346   
     796;   712.8053;         2306   
     797;   713.6806;         2391   
     798;   714.5559;         2298   
     799;   715.4311;         2348   
     800;   716.3064;         2237   
     801;   717.1817;         2272   
     802;   718.0570;         2237   
     803;   718.9322;         2400   
     804;   719.8075;         2276   
     805;   720.6828;         2284   
     806;   721.5581;         2225   
     807;   722.4333;         2217   
     808;   723.3086;         2219   
     809;   724.1839;         2251   
     810;   725.0592;         2237   
     811;   725.9344;         2250   
     812;   726.8097;         2211   
     813;   727.6850;         2242   
     814;   728.5603;         2187   
     815;   729.4355;         2161   
     816;   730.3108;         2111   
     817;   731.1861;         2214   
     818;   732.0614;         2182   
     819;   732.9366;         2230   
     820;   733.8119;         2163   
     821;   734.6872;         2132   
     822;   735.5625;         2228   
     823;   736.4377;         2147   
     824;   737.3130;         2240   
     825;   738.1883;         2131   
     826;   739.0636;         2169   
     827;   739.9388;         2139   
     828;   740.8141;         2086   
     829;   741.6894;         2097   
     830;   742.5647;         2175   
     831;   743.4399;         2098   
     832;   744.3152;         2172   
     833;   745.1905;         2127   
     834;   746.0658;         2129   
     835;   746.9410;         2072   
     836;   747.8163;         2121   
     837;   748.6916;         2083   
     838;   749.5669;         2094   
     839;   750.4421;         2059   
     840;   751.3174;         2100   
     841;   752.1927;         2058   
     842;   753.0680;         2165   
     843;   753.9432;         2099   
     844;   754.8185;         2111   
     845;   755.6938;         2114   
     846;   756.5691;         2061   
     847;   757.4443;         1965   
     848;   758.3196;         2130   
     849;   759.1949;         2010   
     850;   760.0702;         2057   
     851;   760.9454;         2016   
     852;   761.8207;         1998   
     853;   762.6960;         1980   
     854;   763.5713;         2129   
     855;   764.4465;         2029   
     856;   765.3218;         2011   
     857;   766.1971;         2007   
     858;   767.0724;         2047   
     859;   767.9476;         2021   
     860;   768.8229;         1947   
     861;   769.6982;         2057   
     862;   770.5735;         1978   
     863;   771.4487;         1949   
     864;   772.3240;         2012   
     865;   773.1993;         1942   
     866;   774.0746;         1970   
     867;   774.9498;         2159   
     868;   775.8251;         2278   
     869;   776.7004;         2296   
     870;   777.5757;         2038   
     871;   778.4509;         1954   
     872;   779.3262;         1999   
     873;   780.2015;         1949   
     874;   781.0768;         1940   
     875;   781.9520;         1875   
     876;   782.8273;         1838   
     877;   783.7026;         1940   
     878;   784.5779;         1856   
     879;   785.4531;         1859   
     880;   786.3284;         1896   
     881;   787.2037;         1855   
     882;   788.0790;         1920   
     883;   788.9542;         1925   
     884;   789.8295;         1962   
     885;   790.7048;         1857   
     886;   791.5801;         1838   
     887;   792.4553;         1887   
     888;   793.3306;         1862   
     889;   794.2059;         1792   
     890;   795.0812;         1891   
     891;   795.9564;         1818   
     892;   796.8317;         1803   
     893;   797.7070;         1785   
     894;   798.5823;         1841   
     895;   799.4575;         1834   
     896;   800.3328;         1763   
     897;   801.2081;         1786   
     898;   802.0834;         1756   
     899;   802.9586;         1804   
     900;   803.8339;         1731   
     901;   804.7092;         1726   
     902;   805.5845;         1692   
     903;   806.4597;         1720   
     904;   807.3350;         1758   
     905;   808.2103;         1735   
     906;   809.0856;         1818   
     907;   809.9608;         1715   
     908;   810.8361;         1704   
     909;   811.7114;         1793   
     910;   812.5867;         1687   
     911;   813.4619;         1770   
     912;   814.3372;         1756   
     913;   815.2125;         1752   
     914;   816.0878;         1787   
     915;   816.9631;         1843   
     916;   817.8383;         1812   
     917;   818.7136;         1768   
     918;   819.5889;         1753   
     919;   820.4642;         1862   
     920;   821.3394;         1758   
     921;   822.2147;         1816   
     922;   823.0900;         1745   
     923;   823.9653;         1808   
     924;   824.8405;         1835   
     925;   825.7158;         1702   
     926;   826.5911;         1733   
     927;   827.4664;         1757   
     928;   828.3416;         1813   
     929;   829.2169;         1834   
     930;   830.0922;         1741   
     931;   830.9675;         1732   
     932;   831.8427;         1830   
     933;   832.7180;         1737   
     934;   833.5933;         1779   
     935;   834.4686;         1793   
     936;   835.3438;         1764   
     937;   836.2191;         1725   
     938;   837.0944;         1806   
     939;   837.9697;         1729   
     940;   838.8449;         1685   
     941;   839.7202;         1660   
     942;   840.5955;         1768   
     943;   841.4708;         1722   
     944;   842.3460;         1707   
     945;   843.2213;         1651   
     946;   844.0966;         1732   
     947;   844.9719;         1692   
     948;   845.8471;         1660   
     949;   846.7224;         1705   
     950;   847.5977;         1657   
     951;   848.4730;         1670   
     952;   849.3482;         1627   
     953;   850.2235;         1631   
     954;   851.0988;         1648   
     955;   851.9741;         1605   
     956;   852.8493;         1565   
     957;   853.7246;         1697   
     958;   854.5999;         1676   
     959;   855.4752;         1640   
     960;   856.3504;         1639   
     961;   857.2257;         1642   
     962;   858.1010;         1584   
     963;   858.9763;         1590   
     964;   859.8515;         1661   
     965;   860.7268;         1640   
     966;   861.6021;         1625   
     967;   862.4774;         1624   
     968;   863.3526;         1641   
     969;   864.2279;         1727   
     970;   865.1032;         1711   
     971;   865.9785;         1735   
     972;   866.8537;         1510   
     973;   867.7290;         1661   
     974;   868.6043;         1562   
     975;   869.4796;         1595   
     976;   870.3548;         1575   
     977;   871.2301;         1553   
     978;   872.1054;         1639   
     979;   872.9807;         1509   
     980;   873.8559;         1577   
     981;   874.7312;         1567   
     982;   875.6065;         1605   
     983;   876.4818;         1532   
     984;   877.3570;         1486   
     985;   878.2323;         1534   
     986;   879.1076;         1578   
     987;   879.9829;         1530   
     988;   880.8581;         1519   
     989;   881.7334;         1457   
     990;   882.6087;         1521   
     991;   883.4840;         1540   
     992;   884.3592;         1492   
     993;   885.2345;         1515   
     994;   886.1098;         1565   
     995;   886.9851;         1507   
     996;   887.8603;         1503   
     997;   888.7356;         1494   
     998;   889.6109;         1486   
     999;   890.4862;         1461   
    1000;   891.3614;         1530   
    1001;   892.2367;         1525   
    1002;   893.1120;         1544   
    1003;   893.9873;         1429   
    1004;   894.8625;         1502   
    1005;   895.7378;         1505   
    1006;   896.6131;         1460   
    1007;   897.4884;         1522   
    1008;   898.3636;         1452   
    1009;   899.2389;         1380   
    1010;   900.1142;         1517   
    1011;   900.9895;         1435   
    1012;   901.8647;         1387   
    1013;   902.7400;         1501   
    1014;   903.6153;         1405   
    1015;   904.4906;         1423   
    1016;   905.3658;         1419   
    1017;   906.2411;         1443   
    1018;   907.1164;         1421   
    1019;   907.9917;         1431   
    1020;   908.8669;         1299   
    1021;   909.7422;         1344   
    1022;   910.6175;         1440   
    1023;   911.4928;         1407   
    1024;   912.3680;         1401   
    1025;   913.2433;         1418   
    1026;   914.1186;         1397   
    1027;   914.9939;         1405   
    1028;   915.8691;         1319   
    1029;   916.7444;         1416   
    1030;   917.6197;         1355   
    1031;   918.4950;         1391   
    1032;   919.3702;         1369   
    1033;   920.2455;         1397   
    1034;   921.1208;         1311   
    1035;   921.9961;         1379   
    1036;   922.8713;         1331   
    1037;   923.7466;         1293   
    1038;   924.6219;         1323   
    1039;   925.4972;         1332   
    1040;   926.3724;         1247   
    1041;   927.2477;         1438   
    1042;   928.1230;         1346   
    1043;   928.9983;         1315   
    1044;   929.8735;         1278   
    1045;   930.7488;         1389   
    1046;   931.6241;         1219   
    1047;   932.4994;         1321   
    1048;   933.3746;         1309   
    1049;   934.2499;         1336   
    1050;   935.1252;         1245   
    1051;   936.0005;         1262   
    1052;   936.8757;         1253   
    1053;   937.7510;         1255   
    1054;   938.6263;         1274   
    1055;   939.5016;         1218   
    1056;   940.3768;         1284   
    1057;   941.2521;         1255   
    1058;   942.1274;         1229   
    1059;   943.0027;         1302   
    1060;   943.8779;         1268   
    1061;   944.7532;         1268   
    1062;   945.6285;         1259   
    1063;   946.5038;         1261   
    1064;   947.3790;         1213   
    1065;   948.2543;         1282   
    1066;   949.1296;         1238   
    1067;   950.0049;         1282   
    1068;   950.8801;         1274   
    1069;   951.7554;         1259   
    1070;   952.6307;         1168   
    1071;   953.5060;         1244   
    1072;   954.3812;         1265   
    1073;   955.2565;         1224   
    1074;   956.1318;         1216   
    1075;   957.0071;         1196   
    1076;   957.8823;         1278   
    1077;   958.7576;         1320   
    1078;   959.6329;         1382   
    1079;   960.5082;         1520   
    1080;   961.3834;         1401   
    1081;   962.2587;         1259   
    1082;   963.1340;         1235   
    1083;   964.0093;         1249   
    1084;   964.8845;         1241   
    1085;   965.7598;         1263   
    1086;   966.6351;         1149   
    1087;   967.5104;         1144   
    1088;   968.3856;         1276   
    1089;   969.2609;         1117   
    1090;   970.1362;         1191   
    1091;   971.0115;         1196   
    1092;   971.8867;         1149   
    1093;   972.7620;         1161   
    1094;   973.6373;         1172   
    1095;   974.5126;         1148   
    1096;   975.3878;         1168   
    1097;   976.2631;         1160   
    1098;   977.1384;         1135   
    1099;   978.0137;         1196   
    1100;   978.8889;         1130   
    1101;   979.7642;         1136   
    1102;   980.6395;         1125   
    1103;   981.5148;         1163   
    1104;   982.3900;         1234   
    1105;   983.2653;         1116   
    1106;   984.1406;         1075   
    1107;   985.0159;         1150   
    1108;   985.8911;         1144   
    1109;   986.7664;         1107   
    1110;   987.6417;         1145   
    1111;   988.5170;         1152   
    1112;   989.3922;         1183   
    1113;   990.2675;         1069   
    1114;   991.1428;         1129   
    1115;   992.0181;         1114   
    1116;   992.8933;         1083   
    1117;   993.7686;         1122   
    1118;   994.6439;         1154   
    1119;   995.5192;         1116   
    1120;   996.3944;         1086   
    1121;   997.2697;         1058   
    1122;   998.1450;         1123   
    1123;   999.0203;         1082   
    1124;   999.8955;         1104   
    1125;  1000.7708;         1153   
    1126;  1001.6461;         1050   
    1127;  1002.5214;         1133   
    1128;  1003.3966;         1169   
    1129;  1004.2719;         1122   
    1130;  1005.1472;         1085   
    1131;  1006.0225;         1054   
    1132;  1006.8977;         1080   
    1133;  1007.7730;         1081   
    1134;  1008.6483;         1098   
    1135;  1009.5236;         1088   
    1136;  1010.3988;         1134   
    1137;  1011.2741;         1071   
    1138;  1012.1494;         1089   
    1139;  1013.0247;         1044   
    1140;  1013.8999;         1100   
    1141;  1014.7752;         1139   
    1142;  1015.6505;         1077   
    1143;  1016.5258;         1092   
    1144;  1017.4010;         1085   
    1145;  1018.2763;         1067   
    1146;  1019.1516;         1062   
    1147;  1020.0269;         1024   
    1148;  1020.9021;         1011   
    1149;  1021.7774;         1035   
    1150;  1022.6527;         1008   
    1151;  1023.5280;         1053   
    1152;  1024.4032;         1050   
    1153;  1025.2785;         1066   
    1154;  1026.1538;         1021   
    1155;  1027.0291;         1041   
    1156;  1027.9043;         1037   
    1157;  1028.7796;         1010   
    1158;  1029.6549;         1034   
    1159;  1030.5302;         1036   
    1160;  1031.4054;         1056   
    1161;  1032.2807;         1009   
    1162;  1033.1560;         1078   
    1163;  1034.0313;         1063   
    1164;  1034.9065;          982   
    1165;  1035.7818;         1015   
    1166;  1036.6571;         1016   
    1167;  1037.5324;         1004   
    1168;  1038.4076;         1018   
    1169;  1039.2829;         1058   
    1170;  1040.1582;          982   
    1171;  1041.0335;         1005   
    1172;  1041.9087;          978   
    1173;  1042.7840;         1062   
    1174;  1043.6593;         1029   
    1175;  1044.5346;          989   
    1176;  1045.4098;          939   
    1177;  1046.2851;         1021   
    1178;  1047.1604;          993   
    1179;  1048.0357;         1030   
    1180;  1048.9109;         1039   
    1181;  1049.7862;         1003   
    1182;  1050.6615;         1006   
    1183;  1051.5368;          947   
    1184;  1052.4120;         1003   
    1185;  1053.2873;          971   
    1186;  1054.1626;          938   
    1187;  1055.0379;          975   
    1188;  1055.9131;          981   
    1189;  1056.7884;          954   
    1190;  1057.6637;          951   
    1191;  1058.5390;          958   
    1192;  1059.4142;         1005   
    1193;  1060.2895;          928   
    1194;  1061.1648;          964   
    1195;  1062.0401;          982   
    1196;  1062.9153;          996   
    1197;  1063.7906;          964   
    1198;  1064.6659;          918   
    1199;  1065.5412;          973   
    1200;  1066.4164;          961   
    1201;  1067.2917;          947   
    1202;  1068.1670;          973   
    1203;  1069.0423;          950   
    1204;  1069.9175;          941   
    1205;  1070.7928;          942   
    1206;  1071.6681;          942   
    1207;  1072.5434;          953   
    1208;  1073.4186;          911   
    1209;  1074.2939;          984   
    1210;  1075.1692;          943   
    1211;  1076.0445;          974   
    1212;  1076.9197;          940   
    1213;  1077.7950;          943   
    1214;  1078.6703;          951   
    1215;  1079.5456;         1000   
    1216;  1080.4208;         1064   
    1217;  1081.2961;         1152   
    1218;  1082.1714;         1019   
    1219;  1083.0467;         1026   
    1220;  1083.9219;          942   
    1221;  1084.7972;          956   
    1222;  1085.6725;          882   
    1223;  1086.5478;          936   
    1224;  1087.4230;          913   
    1225;  1088.2983;          878   
    1226;  1089.1736;          910   
    1227;  1090.0489;          871   
    1228;  1090.9241;          847   
    1229;  1091.7994;          877   
    1230;  1092.6747;          838   
    1231;  1093.5500;          861   
    1232;  1094.4252;          904   
    1233;  1095.3005;          906   
    1234;  1096.1758;          878   
    1235;  1097.0511;          873   
    1236;  1097.9263;          904   
    1237;  1098.8016;          898   
    1238;  1099.6769;          864   
    1239;  1100.5522;          853   
    1240;  1101.4274;          877   
    1241;  1102.3027;          815   
    1242;  1103.1780;          911   
    1243;  1104.0533;          862   
    1244;  1104.9285;          853   
    1245;  1105.8038;          931   
    1246;  1106.6791;         1053   
    1247;  1107.5544;         1042   
    1248;  1108.4296;          942   
    1249;  1109.3049;          909   
    1250;  1110.1802;          884   
    1251;  1111.0555;          823   
    1252;  1111.9307;          843   
    1253;  1112.8060;          832   
    1254;  1113.6813;          812   
    1255;  1114.5566;          830   
    1256;  1115.4318;          793   
    1257;  1116.3071;          782   
    1258;  1117.1824;          791   
    1259;  1118.0577;          826   
    1260;  1118.9329;          849   
    1261;  1119.8082;          771   
    1262;  1120.6835;          814   
    1263;  1121.5588;          773   
    1264;  1122.4340;          809   
    1265;  1123.3093;          792   
    1266;  1124.1846;          770   
    1267;  1125.0599;          778   
    1268;  1125.9351;          757   
    1269;  1126.8104;          820   
    1270;  1127.6857;          721   
    1271;  1128.5610;          765   
    1272;  1129.4362;          777   
    1273;  1130.3115;          793   
    1274;  1131.1868;          700   
    1275;  1132.0621;          697   
    1276;  1132.9373;          733   
    1277;  1133.8126;          758   
    1278;  1134.6879;          723   
    1279;  1135.5632;          726   
    1280;  1136.4384;          756   
    1281;  1137.3137;          663   
    1282;  1138.1890;          644   
    1283;  1139.0643;          660   
    1284;  1139.9395;          647   
    1285;  1140.8148;          667   
    1286;  1141.6901;          693   
    1287;  1142.5654;          655   
    1288;  1143.4406;          639   
    1289;  1144.3159;          674   
    1290;  1145.1912;          666   
    1291;  1146.0665;          631   
    1292;  1146.9417;          625   
    1293;  1147.8170;          599   
    1294;  1148.6923;          652   
    1295;  1149.5676;          649   
    1296;  1150.4428;          636   
    1297;  1151.3181;          626   
    1298;  1152.1934;          594   
    1299;  1153.0687;          602   
    1300;  1153.9439;          653   
    1301;  1154.8192;          621   
    1302;  1155.6945;          636   
    1303;  1156.5698;          591   
    1304;  1157.4450;          640   
    1305;  1158.3203;          613   
    1306;  1159.1956;          643   
    1307;  1160.0709;          602   
    1308;  1160.9461;          576   
    1309;  1161.8214;          565   
    1310;  1162.6967;          582   
    1311;  1163.5720;          613   
    1312;  1164.4472;          567   
    1313;  1165.3225;          617   
    1314;  1166.1978;          588   
    1315;  1167.0731;          556   
    1316;  1167.9483;          602   
    1317;  1168.8236;          597   
    1318;  1169.6989;          583   
    1319;  1170.5742;          571   
    1320;  1171.4494;          595   
    1321;  1172.3247;          545   
    1322;  1173.2000;          570   
    1323;  1174.0753;          589   
    1324;  1174.9505;          551   
    1325;  1175.8258;          594   
    1326;  1176.7011;          621   
    1327;  1177.5764;          560   
    1328;  1178.4516;          566   
    1329;  1179.3269;          582   
    1330;  1180.2022;          573   
    1331;  1181.0775;          573   
    1332;  1181.9527;          544   
    1333;  1182.8280;          563   
    1334;  1183.7033;          507   
    1335;  1184.5786;          578   
    1336;  1185.4538;          582   
    1337;  1186.3291;          507   
    1338;  1187.2044;          544   
    1339;  1188.0797;          537   
    1340;  1188.9549;          541   
    1341;  1189.8302;          537   
    1342;  1190.7055;          496   
    1343;  1191.5808;          534   
    1344;  1192.4560;          577   
    1345;  1193.3313;          547   
    1346;  1194.2066;          535   
    1347;  1195.0819;          489   
    1348;  1195.9571;          538   
    1349;  1196.8324;          509   
    1350;  1197.7077;          551   
    1351;  1198.5830;          508   
    1352;  1199.4582;          504   
    1353;  1200.3335;          518   
    1354;  1201.2088;          484   
    1355;  1202.0841;          488   
    1356;  1202.9593;          488   
    1357;  1203.8346;          503   
    1358;  1204.7099;          509   
    1359;  1205.5852;          574   
    1360;  1206.4604;          536   
    1361;  1207.3357;          539   
    1362;  1208.2110;          492   
    1363;  1209.0863;          493   
    1364;  1209.9615;          495   
    1365;  1210.8368;          499   
    1366;  1211.7121;          553   
    1367;  1212.5874;          513   
    1368;  1213.4626;          465   
    1369;  1214.3379;          481   
    1370;  1215.2132;          505   
    1371;  1216.0885;          505   
    1372;  1216.9637;          485   
    1373;  1217.8390;          500   
    1374;  1218.7143;          449   
    1375;  1219.5896;          477   
    1376;  1220.4648;          500   
    1377;  1221.3401;          528   
    1378;  1222.2154;          479   
    1379;  1223.0907;          519   
    1380;  1223.9659;          510   
    1381;  1224.8412;          475   
    1382;  1225.7165;          494   
    1383;  1226.5918;          456   
    1384;  1227.4670;          552   
    1385;  1228.3423;          529   
    1386;  1229.2176;          483   
    1387;  1230.0929;          519   
    1388;  1230.9681;          481   
    1389;  1231.8434;          503   
    1390;  1232.7187;          519   
    1391;  1233.5940;          458   
    1392;  1234.4692;          462   
    1393;  1235.3445;          469   
    1394;  1236.2198;          449   
    1395;  1237.0951;          479   
    1396;  1237.9703;          464   
    1397;  1238.8456;          516   
    1398;  1239.7209;          474   
    1399;  1240.5962;          498   
    1400;  1241.4714;          490   
    1401;  1242.3467;          535   
    1402;  1243.2220;          506   
    1403;  1244.0973;          532   
    1404;  1244.9725;          487   
    1405;  1245.8478;          481   
    1406;  1246.7231;          491   
    1407;  1247.5984;          496   
    1408;  1248.4736;          508   
    1409;  1249.3489;          455   
    1410;  1250.2242;          477   
    1411;  1251.0995;          483   
    1412;  1251.9747;          476   
    1413;  1252.8500;          464   
    1414;  1253.7253;          494   
    1415;  1254.6006;          465   
    1416;  1255.4758;          471   
    1417;  1256.3511;          459   
    1418;  1257.2264;          487   
    1419;  1258.1017;          465   
    1420;  1258.9769;          510   
    1421;  1259.8522;          487   
    1422;  1260.7275;          459   
    1423;  1261.6028;          425   
    1424;  1262.4780;          447   
    1425;  1263.3533;          495   
    1426;  1264.2286;          456   
    1427;  1265.1039;          522   
    1428;  1265.9791;          449   
    1429;  1266.8544;          466   
    1430;  1267.7297;          484   
    1431;  1268.6050;          503   
    1432;  1269.4802;          498   
    1433;  1270.3555;          472   
    1434;  1271.2308;          478   
    1435;  1272.1061;          497   
    1436;  1272.9813;          463   
    1437;  1273.8566;          501   
    1438;  1274.7319;          475   
    1439;  1275.6072;          473   
    1440;  1276.4824;          507   
    1441;  1277.3577;          499   
    1442;  1278.2330;          474   
    1443;  1279.1083;          486   
    1444;  1279.9835;          526   
    1445;  1280.8588;          506   
    1446;  1281.7341;          483   
    1447;  1282.6094;          471   
    1448;  1283.4846;          495   
    1449;  1284.3599;          477   
    1450;  1285.2352;          484   
    1451;  1286.1105;          501   
    1452;  1286.9857;          485   
    1453;  1287.8610;          531   
    1454;  1288.7363;          516   
    1455;  1289.6116;          523   
    1456;  1290.4868;          551   
    1457;  1291.3621;          509   
    1458;  1292.2374;          574   
    1459;  1293.1127;          528   
    1460;  1293.9879;          523   
    1461;  1294.8632;          542   
    1462;  1295.7385;          512   
    1463;  1296.6138;          513   
    1464;  1297.4890;          553   
    1465;  1298.3643;          546   
    1466;  1299.2396;          505   
    1467;  1300.1149;          572   
    1468;  1300.9901;          589   
    1469;  1301.8654;          575   
    1470;  1302.7407;          586   
    1471;  1303.6160;          582   
    1472;  1304.4912;          615   
    1473;  1305.3665;          579   
    1474;  1306.2418;          649   
    1475;  1307.1171;          673   
    1476;  1307.9923;          633   
    1477;  1308.8676;          654   
    1478;  1309.7429;          723   
    1479;  1310.6182;          746   
    1480;  1311.4934;          813   
    1481;  1312.3687;          863   
    1482;  1313.2440;          970   
    1483;  1314.1193;         1050   
    1484;  1314.9945;         1233   
    1485;  1315.8698;         1374   
    1486;  1316.7451;         1233   
    1487;  1317.6204;          849   
    1488;  1318.4956;          543   
    1489;  1319.3709;          367   
    1490;  1320.2462;          349   
    1491;  1321.1215;          307   
    1492;  1321.9967;          315   
    1493;  1322.8720;          296   
    1494;  1323.7473;          279   
    1495;  1324.6226;          299   
    1496;  1325.4978;          251   
    1497;  1326.3731;          270   
    1498;  1327.2484;          275   
    1499;  1328.1237;          290   
    1500;  1328.9989;          270   
    1501;  1329.8742;          262   
    1502;  1330.7495;          280   
    1503;  1331.6248;          290   
    1504;  1332.5000;          246   
    1505;  1333.3753;          324   
    1506;  1334.2506;          271   
    1507;  1335.1259;          298   
    1508;  1336.0011;          271   
    1509;  1336.8764;          266   
    1510;  1337.7517;          277   
    1511;  1338.6270;          254   
    1512;  1339.5022;          277   
    1513;  1340.3775;          259   
    1514;  1341.2528;          231   
    1515;  1342.1281;          231   
    1516;  1343.0033;          228   
    1517;  1343.8786;          264   
    1518;  1344.7539;          259   
    1519;  1345.6292;          272   
    1520;  1346.5044;          240   
    1521;  1347.3797;          257   
    1522;  1348.2550;          268   
    1523;  1349.1303;          248   
    1524;  1350.0055;          233   
    1525;  1350.8808;          243   
    1526;  1351.7561;          216   
    1527;  1352.6314;          224   
    1528;  1353.5066;          228   
    1529;  1354.3819;          230   
    1530;  1355.2572;          213   
    1531;  1356.1325;          247   
    1532;  1357.0077;          227   
    1533;  1357.8830;          208   
    1534;  1358.7583;          246   
    1535;  1359.6336;          215   
    1536;  1360.5088;          223   
    1537;  1361.3841;          224   
    1538;  1362.2594;          196   
    1539;  1363.1347;          210   
    1540;  1364.0099;          230   
    1541;  1364.8852;          230   
    1542;  1365.7605;          228   
    1543;  1366.6358;          234   
    1544;  1367.5110;          213   
    1545;  1368.3863;          244   
    1546;  1369.2616;          185   
    1547;  1370.1369;          211   
    1548;  1371.0121;          238   
    1549;  1371.8874;          249   
    1550;  1372.7627;          239   
    1551;  1373.6380;          227   
    1552;  1374.5132;          227   
    1553;  1375.3885;          196   
    1554;  1376.2638;          216   
    1555;  1377.1391;          224   
    1556;  1378.0143;          249   
    1557;  1378.8896;          196   
    1558;  1379.7649;          194   
    1559;  1380.6402;          197   
    1560;  1381.5154;          220   
    1561;  1382.3907;          194   
    1562;  1383.2660;          230   
    1563;  1384.1413;          207   
    1564;  1385.0165;          213   
    1565;  1385.8918;          209   
    1566;  1386.7671;          198   
    1567;  1387.6424;          205   
    1568;  1388.5176;          203   
    1569;  1389.3929;          195   
    1570;  1390.2682;          178   
    1571;  1391.1435;          209   
    1572;  1392.0187;          209   
    1573;  1392.8940;          171   
    1574;  1393.7693;          204   
    1575;  1394.6446;          188   
    1576;  1395.5198;          208   
    1577;  1396.3951;          192   
    1578;  1397.2704;          243   
    1579;  1398.1457;          230   
    1580;  1399.0209;          284   
    1581;  1399.8962;          345   
    1582;  1400.7715;          453   
    1583;  1401.6468;          435   
    1584;  1402.5220;          303   
    1585;  1403.3973;          257   
    1586;  1404.2726;          221   
    1587;  1405.1479;          213   
    1588;  1406.0231;          216   
    1589;  1406.8984;          189   
    1590;  1407.7737;          191   
    1591;  1408.6490;          169   
    1592;  1409.5242;          169   
    1593;  1410.3995;          199   
    1594;  1411.2748;          200   
    1595;  1412.1501;          209   
    1596;  1413.0253;          184   
    1597;  1413.9006;          192   
    1598;  1414.7759;          177   
    1599;  1415.6512;          164   
    1600;  1416.5264;          173   
    1601;  1417.4017;          200   
    1602;  1418.2770;          174   
    1603;  1419.1523;          163   
    1604;  1420.0275;          180   
    1605;  1420.9028;          184   
    1606;  1421.7781;          158   
    1607;  1422.6534;          191   
    1608;  1423.5286;          163   
    1609;  1424.4039;          187   
    1610;  1425.2792;          162   
    1611;  1426.1545;          194   
    1612;  1427.0297;          184   
    1613;  1427.9050;          146   
    1614;  1428.7803;          163   
    1615;  1429.6556;          158   
    1616;  1430.5308;          156   
    1617;  1431.4061;          170   
    1618;  1432.2814;          183   
    1619;  1433.1567;          171   
    1620;  1434.0319;          189   
    1621;  1434.9072;          144   
    1622;  1435.7825;          174   
    1623;  1436.6578;          159   
    1624;  1437.5330;          196   
    1625;  1438.4083;          179   
    1626;  1439.2836;          172   
    1627;  1440.1589;          147   
    1628;  1441.0341;          161   
    1629;  1441.9094;          154   
    1630;  1442.7847;          202   
    1631;  1443.6600;          164   
    1632;  1444.5352;          184   
    1633;  1445.4105;          173   
    1634;  1446.2858;          166   
    1635;  1447.1611;          158   
    1636;  1448.0363;          177   
    1637;  1448.9116;          142   
    1638;  1449.7869;          173   
    1639;  1450.6622;          150   
    1640;  1451.5374;          182   
    1641;  1452.4127;          232   
    1642;  1453.2880;          227   
    1643;  1454.1633;          222   
    1644;  1455.0385;          180   
    1645;  1455.9138;          160   
    1646;  1456.7891;          173   
    1647;  1457.6644;          156   
    1648;  1458.5396;          162   
    1649;  1459.4149;          165   
    1650;  1460.2902;          153   
    1651;  1461.1655;          155   
    1652;  1462.0407;          148   
    1653;  1462.9160;          173   
    1654;  1463.7913;          155   
    1655;  1464.6666;          179   
    1656;  1465.5418;          143   
    1657;  1466.4171;          160   
    1658;  1467.2924;          155   
    1659;  1468.1677;          130   
    1660;  1469.0429;          163   
    1661;  1469.9182;          171   
    1662;  1470.7935;          160   
    1663;  1471.6688;          137   
    1664;  1472.5440;          124   
    1665;  1473.4193;          138   
    1666;  1474.2946;          153   
    1667;  1475.1699;          144   
    1668;  1476.0451;          143   
    1669;  1476.9204;          134   
    1670;  1477.7957;          152   
    1671;  1478.6710;          144   
    1672;  1479.5462;          152   
    1673;  1480.4215;          165   
    1674;  1481.2968;          138   
    1675;  1482.1721;          139   
    1676;  1483.0473;          135   
    1677;  1483.9226;          132   
    1678;  1484.7979;          139   
    1679;  1485.6732;          123   
    1680;  1486.5484;          151   
    1681;  1487.4237;          131   
    1682;  1488.2990;          130   
    1683;  1489.1743;          114   
    1684;  1490.0495;          146   
    1685;  1490.9248;          144   
    1686;  1491.8001;          133   
    1687;  1492.6754;          137   
    1688;  1493.5506;           96   
    1689;  1494.4259;          126   
    1690;  1495.3012;          126   
    1691;  1496.1765;          129   
    1692;  1497.0517;          130   
    1693;  1497.9270;          151   
    1694;  1498.8023;          135   
    1695;  1499.6776;          120   
    1696;  1500.5528;          116   
    1697;  1501.4281;          134   
    1698;  1502.3034;          117   
    1699;  1503.1787;          114   
    1700;  1504.0539;          128   
    1701;  1504.9292;          131   
    1702;  1505.8045;          151   
    1703;  1506.6798;          106   
    1704;  1507.5550;          119   
    1705;  1508.4303;          129   
    1706;  1509.3056;          132   
    1707;  1510.1809;          126   
    1708;  1511.0561;          124   
    1709;  1511.9314;          151   
    1710;  1512.8067;          126   
    1711;  1513.6820;          137   
    1712;  1514.5572;          117   
    1713;  1515.4325;          136   
    1714;  1516.3078;          137   
    1715;  1517.1831;          129   
    1716;  1518.0583;          112   
    1717;  1518.9336;          127   
    1718;  1519.8089;          125   
    1719;  1520.6842;          150   
    1720;  1521.5594;          128   
    1721;  1522.4347;          127   
    1722;  1523.3100;          107   
    1723;  1524.1853;          128   
    1724;  1525.0605;          116   
    1725;  1525.9358;          104   
    1726;  1526.8111;          122   
    1727;  1527.6864;          128   
    1728;  1528.5616;          122   
    1729;  1529.4369;          118   
    1730;  1530.3122;          116   
    1731;  1531.1875;          129   
    1732;  1532.0627;          109   
    1733;  1532.9380;           89   
    1734;  1533.8133;          106   
    1735;  1534.6886;          119   
    1736;  1535.5638;          125   
    1737;  1536.4391;          117   
    1738;  1537.3144;          131   
    1739;  1538.1897;          118   
    1740;  1539.0649;           95   
    1741;  1539.9402;          107   
    1742;  1540.8155;          130   
    1743;  1541.6908;          122   
    1744;  1542.5660;          115   
    1745;  1543.4413;          109   
    1746;  1544.3166;          120   
    1747;  1545.1919;           99   
    1748;  1546.0671;          121   
    1749;  1546.9424;          109   
    1750;  1547.8177;          107   
    1751;  1548.6930;           99   
    1752;  1549.5682;          108   
    1753;  1550.4435;           97   
    1754;  1551.3188;          106   
    1755;  1552.1941;           98   
    1756;  1553.0693;           87   
    1757;  1553.9446;          117   
    1758;  1554.8199;          101   
    1759;  1555.6952;          102   
    1760;  1556.5704;          100   
    1761;  1557.4457;           89   
    1762;  1558.3210;           83   
    1763;  1559.1963;           96   
    1764;  1560.0715;          106   
    1765;  1560.9468;          128   
    1766;  1561.8221;           98   
    1767;  1562.6974;           86   
    1768;  1563.5726;          104   
    1769;  1564.4479;          104   
    1770;  1565.3232;          102   
    1771;  1566.1985;           82   
    1772;  1567.0737;           99   
    1773;  1567.9490;          113   
    1774;  1568.8243;           90   
    1775;  1569.6996;           99   
    1776;  1570.5748;           78   
    1777;  1571.4501;          100   
    1778;  1572.3254;           98   
    1779;  1573.2007;          101   
    1780;  1574.0759;           90   
    1781;  1574.9512;           97   
    1782;  1575.8265;          100   
    1783;  1576.7018;           87   
    1784;  1577.5770;           84   
    1785;  1578.4523;           86   
    1786;  1579.3276;           99   
    1787;  1580.2029;           92   
    1788;  1581.0781;           96   
    1789;  1581.9534;          113   
    1790;  1582.8287;           97   
    1791;  1583.7040;           81   
    1792;  1584.5792;           98   
    1793;  1585.4545;           81   
    1794;  1586.3298;           97   
    1795;  1587.2051;           97   
    1796;  1588.0803;           90   
    1797;  1588.9556;           86   
    1798;  1589.8309;           86   
    1799;  1590.7062;          106   
    1800;  1591.5814;           84   
    1801;  1592.4567;           79   
    1802;  1593.3320;           84   
    1803;  1594.2073;           89   
    1804;  1595.0825;           92   
    1805;  1595.9578;           82   
    1806;  1596.8331;           76   
    1807;  1597.7084;           97   
    1808;  1598.5836;           84   
    1809;  1599.4589;          103   
    1810;  1600.3342;           81   
    1811;  1601.2095;           99   
    1812;  1602.0847;           82   
    1813;  1602.9600;          102   
    1814;  1603.8353;           74   
    1815;  1604.7106;           73   
    1816;  1605.5858;           85   
    1817;  1606.4611;           91   
    1818;  1607.3364;           80   
    1819;  1608.2117;           94   
    1820;  1609.0869;          104   
    1821;  1609.9622;           81   
    1822;  1610.8375;           67   
    1823;  1611.7128;           77   
    1824;  1612.5880;           90   
    1825;  1613.4633;           84   
    1826;  1614.3386;           67   
    1827;  1615.2139;           73   
    1828;  1616.0891;           78   
    1829;  1616.9644;           73   
    1830;  1617.8397;           83   
    1831;  1618.7150;           88   
    1832;  1619.5902;           81   
    1833;  1620.4655;           77   
    1834;  1621.3408;           80   
    1835;  1622.2161;           74   
    1836;  1623.0913;           63   
    1837;  1623.9666;           68   
    1838;  1624.8419;           98   
    1839;  1625.7172;           92   
    1840;  1626.5924;           75   
    1841;  1627.4677;           84   
    1842;  1628.3430;           84   
    1843;  1629.2183;           86   
    1844;  1630.0935;           77   
    1845;  1630.9688;           82   
    1846;  1631.8441;           69   
    1847;  1632.7194;           72   
    1848;  1633.5946;           64   
    1849;  1634.4699;           83   
    1850;  1635.3452;           72   
    1851;  1636.2205;           83   
    1852;  1637.0957;           84   
    1853;  1637.9710;           74   
    1854;  1638.8463;           71   
    1855;  1639.7216;           72   
    1856;  1640.5968;           68   
    1857;  1641.4721;           72   
    1858;  1642.3474;           75   
    1859;  1643.2227;           79   
    1860;  1644.0979;           61   
    1861;  1644.9732;           75   
    1862;  1645.8485;           71   
    1863;  1646.7238;           68   
    1864;  1647.5990;           70   
    1865;  1648.4743;           51   
    1866;  1649.3496;           73   
    1867;  1650.2249;           59   
    1868;  1651.1001;           57   
    1869;  1651.9754;           93   
    1870;  1652.8507;           64   
    1871;  1653.7260;           73   
    1872;  1654.6012;           67   
    1873;  1655.4765;           61   
    1874;  1656.3518;           65   
    1875;  1657.2271;           60   
    1876;  1658.1023;           74   
    1877;  1658.9776;           84   
    1878;  1659.8529;           62   
    1879;  1660.7282;           69   
    1880;  1661.6034;           76   
    1881;  1662.4787;           68   
    1882;  1663.3540;           60   
    1883;  1664.2293;           51   
    1884;  1665.1045;           64   
    1885;  1665.9798;           81   
    1886;  1666.8551;           58   
    1887;  1667.7304;           58   
    1888;  1668.6056;           74   
    1889;  1669.4809;           67   
    1890;  1670.3562;           50   
    1891;  1671.2315;           57   
    1892;  1672.1067;           56   
    1893;  1672.9820;           65   
    1894;  1673.8573;           60   
    1895;  1674.7326;           43   
    1896;  1675.6078;           74   
    1897;  1676.4831;           49   
    1898;  1677.3584;           63   
    1899;  1678.2337;           56   
    1900;  1679.1089;           74   
    1901;  1679.9842;           55   
    1902;  1680.8595;           47   
    1903;  1681.7348;           71   
    1904;  1682.6100;           61   
    1905;  1683.4853;           52   
    1906;  1684.3606;           65   
    1907;  1685.2359;           77   
    1908;  1686.1111;           50   
    1909;  1686.9864;           64   
    1910;  1687.8617;           62   
    1911;  1688.7370;           52   
    1912;  1689.6122;           63   
    1913;  1690.4875;           57   
    1914;  1691.3628;           61   
    1915;  1692.2381;           64   
    1916;  1693.1133;           65   
    1917;  1693.9886;           51   
    1918;  1694.8639;           55   
    1919;  1695.7392;           58   
    1920;  1696.6144;           54   
    1921;  1697.4897;           65   
    1922;  1698.3650;           81   
    1923;  1699.2403;           60   
    1924;  1700.1155;           52   
    1925;  1700.9908;           46   
    1926;  1701.8661;           51   
    1927;  1702.7414;           56   
    1928;  1703.6166;           43   
    1929;  1704.4919;           55   
    1930;  1705.3672;           69   
    1931;  1706.2425;           53   
    1932;  1707.1177;           58   
    1933;  1707.9930;           52   
    1934;  1708.8683;           74   
    1935;  1709.7436;           48   
    1936;  1710.6188;           47   
    1937;  1711.4941;           53   
    1938;  1712.3694;           59   
    1939;  1713.2447;           66   
    1940;  1714.1199;           49   
    1941;  1714.9952;           51   
    1942;  1715.8705;           65   
    1943;  1716.7458;           49   
    1944;  1717.6210;           53   
    1945;  1718.4963;           44   
    1946;  1719.3716;           48   
    1947;  1720.2469;           42   
    1948;  1721.1221;           57   
    1949;  1721.9974;           46   
    1950;  1722.8727;           52   
    1951;  1723.7480;           37   
    1952;  1724.6232;           39   
    1953;  1725.4985;           52   
    1954;  1726.3738;           47   
    1955;  1727.2491;           60   
    1956;  1728.1243;           49   
    1957;  1728.9996;           55   
    1958;  1729.8749;           50   
    1959;  1730.7502;           50   
    1960;  1731.6254;           39   
    1961;  1732.5007;           54   
    1962;  1733.3760;           56   
    1963;  1734.2513;           44   
    1964;  1735.1265;           61   
    1965;  1736.0018;           48   
    1966;  1736.8771;           64   
    1967;  1737.7524;           52   
    1968;  1738.6276;           48   
    1969;  1739.5029;           69   
    1970;  1740.3782;           38   
    1971;  1741.2535;           54   
    1972;  1742.1287;           44   
    1973;  1743.0040;           47   
    1974;  1743.8793;           44   
    1975;  1744.7546;           52   
    1976;  1745.6298;           42   
    1977;  1746.5051;           37   
    1978;  1747.3804;           47   
    1979;  1748.2557;           35   
    1980;  1749.1309;            7   
    1981;  1750.0062;            1   
    1982;  1750.8815;            0   
    1983;  1751.7568;            1   
    1984;  1752.6320;            0   
    1985;  1753.5073;            0   
    1986;  1754.3826;            0   
    1987;  1755.2579;            0   
    1988;  1756.1331;            0   
    1989;  1757.0084;            0   
    1990;  1757.8837;            0   
    1991;  1758.7590;            0   
    1992;  1759.6342;            0   
    1993;  1760.5095;            0   
    1994;  1761.3848;            0   
    1995;  1762.2601;            0   
    1996;  1763.1353;            0   
    1997;  1764.0106;            0   
    1998;  1764.8859;            0   
    1999;  1765.7612;            0   
    2000;  1766.6364;            0   
    2001;  1767.5117;            0   
    2002;  1768.3870;            0   
    2003;  1769.2623;            0   
    2004;  1770.1375;            0   
    2005;  1771.0128;            0   
    2006;  1771.8881;            0   
    2007;  1772.7634;            0   
    2008;  1773.6386;            0   
    2009;  1774.5139;            0   
    2010;  1775.3892;            0   
    2011;  1776.2645;            0   
    2012;  1777.1397;            0   
    2013;  1778.0150;            0   
    2014;  1778.8903;            0   
    2015;  1779.7656;            0   
    2016;  1780.6408;            0   
    2017;  1781.5161;            0   
    2018;  1782.3914;            0   
    2019;  1783.2667;            0   
    2020;  1784.1419;            0   
    2021;  1785.0172;            0   
    2022;  1785.8925;            0   
    2023;  1786.7678;            0   
    2024;  1787.6430;            0   
    2025;  1788.5183;            0   
    2026;  1789.3936;            0   
    2027;  1790.2689;            0   
    2028;  1791.1441;            0   
    2029;  1792.0194;            0   
    2030;  1792.8947;            0   
    2031;  1793.7700;            0   
    2032;  1794.6452;            0   
    2033;  1795.5205;            0   
    2034;  1796.3958;            0   
    2035;  1797.2711;            0   
    2036;  1798.1463;            0   
    2037;  1799.0216;            0   
    2038;  1799.8969;            0   
    2039;  1800.7722;            0   
    2040;  1801.6474;            0   
    2041;  1802.5227;            0   
    2042;  1803.3980;            0   
    2043;  1804.2733;            0   
    2044;  1805.1485;            0   
    2045;  1806.0238;            0   
    2046;  1806.8991;            0   
    2047;  1807.7744;            0   
    2048;  1808.6496;            0   
ROI Nummer; Anfangskanal; Endkanal; Anfangsenergie keV ; Endenergie keV; Nettoimpulse; Bruttoimpulse; Untergrundimpulse
In den Daten wurden keine Linien gefunden
ROI Nummer; prozentualer Fehler der Lage; Lage keV; FWHM keV; FWTM keV; FWTM/FWHM Verhltnis; H/L Verhltnis
No Peak records found in data.
Name; Energie keV; Flags; Aktivitt uCi/Unit; Aktivittsfehler %; NWG uCi/Unit; MDA Error %
Es wurden keine Nuklidergebnisse gefunden.
Name; Erwartete Endergie keV; Gemessene Energie keV; Differenz von erwarteter keV; FWHM; Flags; Aktivitt uCi/Unit; Aktivittsfehler %
Es wurden keine Nuklidergebnisse gefunden.
