Kanal;   Energie(keV); Impulse
       1;    16.9617;         2895   
       2;    17.8370;         2836   
       3;    18.7122;         2798   
       4;    19.5875;         2698   
       5;    20.4628;         2574   
       6;    21.3381;         2646   
       7;    22.2133;         2563   
       8;    23.0886;         2475   
       9;    23.9639;         2453   
      10;    24.8392;         2454   
      11;    25.7144;         2366   
      12;    26.5897;         2346   
      13;    27.4650;         2211   
      14;    28.3403;         2180   
      15;    29.2155;         2203   
      16;    30.0908;         2167   
      17;    30.9661;         2041   
      18;    31.8414;         2114   
      19;    32.7166;         2131   
      20;    33.5919;         2138   
      21;    34.4672;         2226   
      22;    35.3425;         2172   
      23;    36.2177;         2200   
      24;    37.0930;         2082   
      25;    37.9683;         2189   
      26;    38.8436;         2149   
      27;    39.7188;         1972   
      28;    40.5941;         2058   
      29;    41.4694;         2093   
      30;    42.3447;         2078   
      31;    43.2199;         2041   
      32;    44.0952;         2044   
      33;    44.9705;         1990   
      34;    45.8458;         2095   
      35;    46.7210;         2132   
      36;    47.5963;         1990   
      37;    48.4716;         2062   
      38;    49.3469;         1860   
      39;    50.2221;         1924   
      40;    51.0974;         2006   
      41;    51.9727;         1945   
      42;    52.8480;         1863   
      43;    53.7232;         1921   
      44;    54.5985;         1870   
      45;    55.4738;         1881   
      46;    56.3491;         1911   
      47;    57.2243;         1902   
      48;    58.0996;         1919   
      49;    58.9749;         1921   
      50;    59.8502;         1926   
      51;    60.7254;         1971   
      52;    61.6007;         1934   
      53;    62.4760;         1927   
      54;    63.3513;         1921   
      55;    64.2265;         1854   
      56;    65.1018;         1950   
      57;    65.9771;         1979   
      58;    66.8524;         2023   
      59;    67.7276;         1990   
      60;    68.6029;         2007   
      61;    69.4782;         2067   
      62;    70.3535;         2074   
      63;    71.2287;         2031   
      64;    72.1040;         2147   
      65;    72.9793;         2249   
      66;    73.8546;         2734   
      67;    74.7298;         3243   
      68;    75.6051;         3062   
      69;    76.4804;         3915   
      70;    77.3557;         3460   
      71;    78.2309;         2337   
      72;    79.1062;         2154   
      73;    79.9815;         2030   
      74;    80.8568;         2182   
      75;    81.7320;         2175   
      76;    82.6073;         2191   
      77;    83.4826;         2296   
      78;    84.3579;         2311   
      79;    85.2331;         2629   
      80;    86.1084;         3378   
      81;    86.9837;         3252   
      82;    87.8590;         2556   
      83;    88.7342;         2680   
      84;    89.6095;         2515   
      85;    90.4848;         2350   
      86;    91.3601;         2281   
      87;    92.2353;         2268   
      88;    93.1106;         2277   
      89;    93.9859;         2164   
      90;    94.8612;         2236   
      91;    95.7364;         2249   
      92;    96.6117;         2127   
      93;    97.4870;         2283   
      94;    98.3623;         2263   
      95;    99.2375;         2269   
      96;   100.1128;         2290   
      97;   100.9881;         2139   
      98;   101.8634;         2254   
      99;   102.7386;         2244   
     100;   103.6139;         2276   
     101;   104.4892;         2381   
     102;   105.3645;         2247   
     103;   106.2397;         2228   
     104;   107.1150;         2275   
     105;   107.9903;         2267   
     106;   108.8656;         2275   
     107;   109.7408;         2268   
     108;   110.6161;         2355   
     109;   111.4914;         2396   
     110;   112.3667;         2348   
     111;   113.2419;         2400   
     112;   114.1172;         2412   
     113;   114.9925;         2359   
     114;   115.8678;         2316   
     115;   116.7430;         2428   
     116;   117.6183;         2375   
     117;   118.4936;         2438   
     118;   119.3689;         2352   
     119;   120.2441;         2423   
     120;   121.1194;         2496   
     121;   121.9947;         4660   
     122;   122.8700;        10919   
     123;   123.7452;         9653   
     124;   124.6205;         3624   
     125;   125.4958;         2352   
     126;   126.3711;         2363   
     127;   127.2463;         2315   
     128;   128.1216;         2264   
     129;   128.9969;         2287   
     130;   129.8722;         2313   
     131;   130.7474;         2301   
     132;   131.6227;         2274   
     133;   132.4980;         2305   
     134;   133.3733;         2266   
     135;   134.2485;         2201   
     136;   135.1238;         2359   
     137;   135.9991;         2320   
     138;   136.8744;         2239   
     139;   137.7496;         2210   
     140;   138.6249;         2321   
     141;   139.5002;         2288   
     142;   140.3755;         2204   
     143;   141.2507;         2412   
     144;   142.1260;         2275   
     145;   143.0013;         2294   
     146;   143.8766;         2328   
     147;   144.7518;         2265   
     148;   145.6271;         2258   
     149;   146.5024;         2300   
     150;   147.3777;         2283   
     151;   148.2529;         2304   
     152;   149.1282;         2259   
     153;   150.0035;         2362   
     154;   150.8788;         2376   
     155;   151.7540;         2333   
     156;   152.6293;         2269   
     157;   153.5046;         2349   
     158;   154.3799;         2415   
     159;   155.2551;         2340   
     160;   156.1304;         2290   
     161;   157.0057;         2295   
     162;   157.8810;         2347   
     163;   158.7562;         2408   
     164;   159.6315;         2227   
     165;   160.5068;         2303   
     166;   161.3821;         2340   
     167;   162.2573;         2399   
     168;   163.1326;         2356   
     169;   164.0079;         2286   
     170;   164.8832;         2398   
     171;   165.7584;         2319   
     172;   166.6337;         2322   
     173;   167.5090;         2288   
     174;   168.3843;         2386   
     175;   169.2595;         2363   
     176;   170.1348;         2311   
     177;   171.0101;         2280   
     178;   171.8854;         2309   
     179;   172.7606;         2303   
     180;   173.6359;         2397   
     181;   174.5112;         2360   
     182;   175.3865;         2377   
     183;   176.2617;         2342   
     184;   177.1370;         2308   
     185;   178.0123;         2375   
     186;   178.8876;         2379   
     187;   179.7628;         2477   
     188;   180.6381;         2485   
     189;   181.5134;         2478   
     190;   182.3887;         2559   
     191;   183.2639;         2667   
     192;   184.1392;         2819   
     193;   185.0145;         3071   
     194;   185.8898;         3219   
     195;   186.7650;         3222   
     196;   187.6403;         3376   
     197;   188.5156;         3425   
     198;   189.3909;         3363   
     199;   190.2661;         3368   
     200;   191.1414;         3388   
     201;   192.0167;         3285   
     202;   192.8920;         3317   
     203;   193.7672;         3293   
     204;   194.6425;         3212   
     205;   195.5178;         3325   
     206;   196.3931;         3227   
     207;   197.2683;         3320   
     208;   198.1436;         3297   
     209;   199.0189;         3183   
     210;   199.8942;         3243   
     211;   200.7694;         3188   
     212;   201.6447;         3149   
     213;   202.5200;         3003   
     214;   203.3953;         3028   
     215;   204.2705;         3064   
     216;   205.1458;         2953   
     217;   206.0211;         2964   
     218;   206.8964;         2933   
     219;   207.7716;         2898   
     220;   208.6469;         2808   
     221;   209.5222;         2761   
     222;   210.3975;         2822   
     223;   211.2727;         2719   
     224;   212.1480;         2645   
     225;   213.0233;         2689   
     226;   213.8986;         2613   
     227;   214.7738;         2539   
     228;   215.6491;         2538   
     229;   216.5244;         2540   
     230;   217.3997;         2521   
     231;   218.2749;         2480   
     232;   219.1502;         2339   
     233;   220.0255;         2428   
     234;   220.9008;         2311   
     235;   221.7760;         2232   
     236;   222.6513;         2336   
     237;   223.5266;         2354   
     238;   224.4019;         2321   
     239;   225.2771;         2220   
     240;   226.1524;         2258   
     241;   227.0277;         2252   
     242;   227.9030;         2230   
     243;   228.7782;         2182   
     244;   229.6535;         2104   
     245;   230.5288;         2063   
     246;   231.4041;         2057   
     247;   232.2793;         2042   
     248;   233.1546;         2073   
     249;   234.0299;         2110   
     250;   234.9052;         2074   
     251;   235.7804;         2009   
     252;   236.6557;         2000   
     253;   237.5310;         2048   
     254;   238.4063;         2090   
     255;   239.2815;         2075   
     256;   240.1568;         2070   
     257;   241.0321;         1884   
     258;   241.9074;         1957   
     259;   242.7826;         2007   
     260;   243.6579;         2068   
     261;   244.5332;         2949   
     262;   245.4085;         3857   
     263;   246.2837;         2862   
     264;   247.1590;         1999   
     265;   248.0343;         1853   
     266;   248.9096;         1882   
     267;   249.7848;         1857   
     268;   250.6601;         1893   
     269;   251.5354;         1838   
     270;   252.4107;         1810   
     271;   253.2859;         1871   
     272;   254.1612;         1788   
     273;   255.0365;         1793   
     274;   255.9118;         1765   
     275;   256.7870;         1751   
     276;   257.6623;         1706   
     277;   258.5376;         1771   
     278;   259.4129;         1753   
     279;   260.2881;         1776   
     280;   261.1634;         1828   
     281;   262.0387;         1708   
     282;   262.9140;         1811   
     283;   263.7892;         1804   
     284;   264.6645;         1661   
     285;   265.5398;         1698   
     286;   266.4151;         1702   
     287;   267.2903;         1602   
     288;   268.1656;         1748   
     289;   269.0409;         1748   
     290;   269.9162;         1659   
     291;   270.7914;         1668   
     292;   271.6667;         1753   
     293;   272.5420;         1696   
     294;   273.4173;         1779   
     295;   274.2925;         1752   
     296;   275.1678;         1685   
     297;   276.0431;         1627   
     298;   276.9184;         1666   
     299;   277.7936;         1671   
     300;   278.6689;         1714   
     301;   279.5442;         1664   
     302;   280.4195;         1626   
     303;   281.2947;         1589   
     304;   282.1700;         1609   
     305;   283.0453;         1579   
     306;   283.9206;         1662   
     307;   284.7958;         1636   
     308;   285.6711;         1627   
     309;   286.5464;         1614   
     310;   287.4217;         1604   
     311;   288.2969;         1631   
     312;   289.1722;         1574   
     313;   290.0475;         1562   
     314;   290.9228;         1612   
     315;   291.7980;         1631   
     316;   292.6733;         1567   
     317;   293.5486;         1575   
     318;   294.4239;         1596   
     319;   295.2991;         1673   
     320;   296.1744;         1719   
     321;   297.0497;         1651   
     322;   297.9250;         1611   
     323;   298.8002;         1602   
     324;   299.6755;         1599   
     325;   300.5508;         1572   
     326;   301.4261;         1610   
     327;   302.3013;         1556   
     328;   303.1766;         1627   
     329;   304.0519;         1573   
     330;   304.9272;         1527   
     331;   305.8024;         1556   
     332;   306.6777;         1616   
     333;   307.5530;         1525   
     334;   308.4283;         1542   
     335;   309.3035;         1499   
     336;   310.1788;         1539   
     337;   311.0541;         1554   
     338;   311.9294;         1497   
     339;   312.8046;         1508   
     340;   313.6799;         1561   
     341;   314.5552;         1429   
     342;   315.4305;         1496   
     343;   316.3057;         1539   
     344;   317.1810;         1541   
     345;   318.0563;         1555   
     346;   318.9316;         1459   
     347;   319.8068;         1550   
     348;   320.6821;         1531   
     349;   321.5574;         1419   
     350;   322.4327;         1549   
     351;   323.3079;         1511   
     352;   324.1832;         1477   
     353;   325.0585;         1568   
     354;   325.9338;         1604   
     355;   326.8090;         1481   
     356;   327.6843;         1548   
     357;   328.5596;         1510   
     358;   329.4349;         1555   
     359;   330.3101;         1481   
     360;   331.1854;         1556   
     361;   332.0607;         1517   
     362;   332.9360;         1533   
     363;   333.8112;         1503   
     364;   334.6865;         1497   
     365;   335.5618;         1512   
     366;   336.4371;         1504   
     367;   337.3123;         1579   
     368;   338.1876;         1578   
     369;   339.0629;         1678   
     370;   339.9382;         1506   
     371;   340.8134;         1511   
     372;   341.6887;         1474   
     373;   342.5640;         1909   
     374;   343.4393;         3975   
     375;   344.3145;         6593   
     376;   345.1898;         4447   
     377;   346.0651;         1971   
     378;   346.9404;         1616   
     379;   347.8156;         1576   
     380;   348.6909;         1549   
     381;   349.5662;         1460   
     382;   350.4415;         1552   
     383;   351.3167;         1507   
     384;   352.1920;         1566   
     385;   353.0673;         1476   
     386;   353.9426;         1498   
     387;   354.8178;         1539   
     388;   355.6931;         1464   
     389;   356.5684;         1495   
     390;   357.4437;         1546   
     391;   358.3189;         1572   
     392;   359.1942;         1512   
     393;   360.0695;         1567   
     394;   360.9448;         1508   
     395;   361.8200;         1497   
     396;   362.6953;         1524   
     397;   363.5706;         1577   
     398;   364.4459;         1485   
     399;   365.3211;         1479   
     400;   366.1964;         1580   
     401;   367.0717;         1720   
     402;   367.9470;         1746   
     403;   368.8222;         1668   
     404;   369.6975;         1512   
     405;   370.5728;         1524   
     406;   371.4481;         1616   
     407;   372.3233;         1496   
     408;   373.1986;         1544   
     409;   374.0739;         1579   
     410;   374.9492;         1544   
     411;   375.8244;         1544   
     412;   376.6997;         1580   
     413;   377.5750;         1587   
     414;   378.4503;         1558   
     415;   379.3255;         1588   
     416;   380.2008;         1609   
     417;   381.0761;         1498   
     418;   381.9514;         1605   
     419;   382.8266;         1559   
     420;   383.7019;         1626   
     421;   384.5772;         1574   
     422;   385.4525;         1625   
     423;   386.3277;         1586   
     424;   387.2030;         1583   
     425;   388.0783;         1616   
     426;   388.9536;         1645   
     427;   389.8288;         1671   
     428;   390.7041;         1555   
     429;   391.5794;         1654   
     430;   392.4547;         1539   
     431;   393.3299;         1591   
     432;   394.2052;         1592   
     433;   395.0805;         1598   
     434;   395.9558;         1647   
     435;   396.8310;         1641   
     436;   397.7063;         1671   
     437;   398.5816;         1710   
     438;   399.4569;         1609   
     439;   400.3321;         1563   
     440;   401.2074;         1614   
     441;   402.0827;         1670   
     442;   402.9580;         1727   
     443;   403.8332;         1607   
     444;   404.7085;         1646   
     445;   405.5838;         1681   
     446;   406.4591;         1662   
     447;   407.3343;         1740   
     448;   408.2096;         1708   
     449;   409.0849;         1714   
     450;   409.9602;         1882   
     451;   410.8354;         2056   
     452;   411.7107;         2010   
     453;   412.5860;         1761   
     454;   413.4613;         1713   
     455;   414.3365;         1839   
     456;   415.2118;         1803   
     457;   416.0871;         1792   
     458;   416.9624;         1696   
     459;   417.8376;         1782   
     460;   418.7129;         1776   
     461;   419.5882;         1781   
     462;   420.4635;         1830   
     463;   421.3387;         1821   
     464;   422.2140;         1846   
     465;   423.0893;         1828   
     466;   423.9646;         1836   
     467;   424.8398;         1855   
     468;   425.7151;         1861   
     469;   426.5904;         1778   
     470;   427.4657;         1842   
     471;   428.3409;         1882   
     472;   429.2162;         1806   
     473;   430.0915;         1981   
     474;   430.9668;         1894   
     475;   431.8420;         1926   
     476;   432.7173;         1935   
     477;   433.5926;         1911   
     478;   434.4679;         1887   
     479;   435.3431;         1910   
     480;   436.2184;         1984   
     481;   437.0937;         1900   
     482;   437.9690;         1972   
     483;   438.8442;         1935   
     484;   439.7195;         2071   
     485;   440.5948;         1934   
     486;   441.4701;         2022   
     487;   442.3453;         2224   
     488;   443.2206;         2554   
     489;   444.0959;         2376   
     490;   444.9712;         2104   
     491;   445.8464;         2041   
     492;   446.7217;         2114   
     493;   447.5970;         2144   
     494;   448.4723;         2161   
     495;   449.3475;         2182   
     496;   450.2228;         2151   
     497;   451.0981;         2137   
     498;   451.9734;         2194   
     499;   452.8486;         2185   
     500;   453.7239;         2256   
     501;   454.5992;         2172   
     502;   455.4745;         2159   
     503;   456.3497;         2199   
     504;   457.2250;         2202   
     505;   458.1003;         2189   
     506;   458.9756;         2180   
     507;   459.8508;         2247   
     508;   460.7261;         2310   
     509;   461.6014;         2222   
     510;   462.4767;         2274   
     511;   463.3519;         2389   
     512;   464.2272;         2311   
     513;   465.1025;         2340   
     514;   465.9778;         2347   
     515;   466.8530;         2367   
     516;   467.7283;         2232   
     517;   468.6036;         2309   
     518;   469.4789;         2347   
     519;   470.3541;         2312   
     520;   471.2294;         2312   
     521;   472.1047;         2254   
     522;   472.9800;         2186   
     523;   473.8552;         2170   
     524;   474.7305;         2037   
     525;   475.6058;         2037   
     526;   476.4811;         1910   
     527;   477.3563;         1846   
     528;   478.2316;         1726   
     529;   479.1069;         1714   
     530;   479.9822;         1577   
     531;   480.8574;         1589   
     532;   481.7327;         1479   
     533;   482.6080;         1443   
     534;   483.4833;         1399   
     535;   484.3585;         1417   
     536;   485.2338;         1407   
     537;   486.1091;         1317   
     538;   486.9844;         1310   
     539;   487.8596;         1316   
     540;   488.7349;         1343   
     541;   489.6102;         1306   
     542;   490.4855;         1228   
     543;   491.3607;         1267   
     544;   492.2360;         1207   
     545;   493.1113;         1268   
     546;   493.9866;         1228   
     547;   494.8618;         1168   
     548;   495.7371;         1163   
     549;   496.6124;         1128   
     550;   497.4877;         1174   
     551;   498.3629;         1112   
     552;   499.2382;         1150   
     553;   500.1135;         1161   
     554;   500.9888;         1068   
     555;   501.8640;         1070   
     556;   502.7393;         1085   
     557;   503.6146;         1131   
     558;   504.4899;         1103   
     559;   505.3651;         1025   
     560;   506.2404;          967   
     561;   507.1157;         1045   
     562;   507.9910;          969   
     563;   508.8662;         1023   
     564;   509.7415;         1022   
     565;   510.6168;         1020   
     566;   511.4921;          994   
     567;   512.3673;          999   
     568;   513.2426;          965   
     569;   514.1179;          903   
     570;   514.9932;          912   
     571;   515.8684;          900   
     572;   516.7437;          905   
     573;   517.6190;          901   
     574;   518.4943;          895   
     575;   519.3695;          896   
     576;   520.2448;          937   
     577;   521.1201;          870   
     578;   521.9954;          803   
     579;   522.8706;          825   
     580;   523.7459;          833   
     581;   524.6212;          798   
     582;   525.4965;          822   
     583;   526.3717;          788   
     584;   527.2470;          819   
     585;   528.1223;          794   
     586;   528.9976;          758   
     587;   529.8728;          780   
     588;   530.7481;          765   
     589;   531.6234;          719   
     590;   532.4987;          758   
     591;   533.3739;          771   
     592;   534.2492;          773   
     593;   535.1245;          690   
     594;   535.9998;          659   
     595;   536.8750;          630   
     596;   537.7503;          718   
     597;   538.6256;          614   
     598;   539.5009;          650   
     599;   540.3761;          644   
     600;   541.2514;          608   
     601;   542.1267;          640   
     602;   543.0020;          635   
     603;   543.8772;          656   
     604;   544.7525;          628   
     605;   545.6278;          574   
     606;   546.5031;          585   
     607;   547.3783;          625   
     608;   548.2536;          590   
     609;   549.1289;          575   
     610;   550.0042;          521   
     611;   550.8794;          554   
     612;   551.7547;          521   
     613;   552.6300;          537   
     614;   553.5053;          537   
     615;   554.3805;          507   
     616;   555.2558;          545   
     617;   556.1311;          473   
     618;   557.0064;          512   
     619;   557.8816;          521   
     620;   558.7569;          483   
     621;   559.6322;          515   
     622;   560.5075;          498   
     623;   561.3827;          490   
     624;   562.2580;          545   
     625;   563.1333;          556   
     626;   564.0086;          524   
     627;   564.8838;          471   
     628;   565.7591;          488   
     629;   566.6344;          490   
     630;   567.5097;          451   
     631;   568.3849;          456   
     632;   569.2602;          490   
     633;   570.1355;          465   
     634;   571.0108;          475   
     635;   571.8860;          442   
     636;   572.7613;          448   
     637;   573.6366;          457   
     638;   574.5119;          396   
     639;   575.3871;          407   
     640;   576.2624;          414   
     641;   577.1377;          468   
     642;   578.0130;          430   
     643;   578.8882;          484   
     644;   579.7635;          404   
     645;   580.6388;          435   
     646;   581.5141;          473   
     647;   582.3893;          466   
     648;   583.2646;          414   
     649;   584.1399;          497   
     650;   585.0152;          438   
     651;   585.8904;          429   
     652;   586.7657;          425   
     653;   587.6410;          412   
     654;   588.5163;          408   
     655;   589.3915;          404   
     656;   590.2668;          391   
     657;   591.1421;          406   
     658;   592.0174;          423   
     659;   592.8926;          359   
     660;   593.7679;          366   
     661;   594.6432;          384   
     662;   595.5185;          396   
     663;   596.3937;          375   
     664;   597.2690;          369   
     665;   598.1443;          378   
     666;   599.0196;          384   
     667;   599.8948;          377   
     668;   600.7701;          362   
     669;   601.6454;          383   
     670;   602.5207;          393   
     671;   603.3959;          408   
     672;   604.2712;          361   
     673;   605.1465;          386   
     674;   606.0218;          385   
     675;   606.8970;          399   
     676;   607.7723;          442   
     677;   608.6476;          407   
     678;   609.5229;          382   
     679;   610.3981;          381   
     680;   611.2734;          381   
     681;   612.1487;          332   
     682;   613.0240;          335   
     683;   613.8992;          340   
     684;   614.7745;          366   
     685;   615.6498;          320   
     686;   616.5251;          364   
     687;   617.4003;          358   
     688;   618.2756;          341   
     689;   619.1509;          337   
     690;   620.0262;          309   
     691;   620.9014;          328   
     692;   621.7767;          348   
     693;   622.6520;          350   
     694;   623.5273;          309   
     695;   624.4025;          343   
     696;   625.2778;          347   
     697;   626.1531;          382   
     698;   627.0284;          320   
     699;   627.9036;          344   
     700;   628.7789;          360   
     701;   629.6542;          320   
     702;   630.5295;          342   
     703;   631.4047;          309   
     704;   632.2800;          330   
     705;   633.1553;          323   
     706;   634.0306;          341   
     707;   634.9058;          316   
     708;   635.7811;          316   
     709;   636.6564;          329   
     710;   637.5317;          283   
     711;   638.4069;          309   
     712;   639.2822;          334   
     713;   640.1575;          360   
     714;   641.0328;          274   
     715;   641.9080;          315   
     716;   642.7833;          320   
     717;   643.6586;          330   
     718;   644.5339;          336   
     719;   645.4091;          378   
     720;   646.2844;          311   
     721;   647.1597;          354   
     722;   648.0350;          352   
     723;   648.9102;          304   
     724;   649.7855;          330   
     725;   650.6608;          296   
     726;   651.5361;          317   
     727;   652.4113;          353   
     728;   653.2866;          331   
     729;   654.1619;          382   
     730;   655.0372;          348   
     731;   655.9124;          414   
     732;   656.7877;          736   
     733;   657.6630;         4654   
     734;   658.5383;        34276   
     735;   659.4135;       102675   
     736;   660.2888;       105798   
     737;   661.1641;        36333   
     738;   662.0394;         5401   
     739;   662.9146;         1675   
     740;   663.7899;         1224   
     741;   664.6652;          908   
     742;   665.5405;          680   
     743;   666.4157;          503   
     744;   667.2910;          377   
     745;   668.1663;          389   
     746;   669.0416;          303   
     747;   669.9168;          330   
     748;   670.7921;          317   
     749;   671.6674;          298   
     750;   672.5427;          329   
     751;   673.4179;          303   
     752;   674.2932;          280   
     753;   675.1685;          288   
     754;   676.0438;          304   
     755;   676.9190;          346   
     756;   677.7943;          317   
     757;   678.6696;          249   
     758;   679.5449;          290   
     759;   680.4201;          258   
     760;   681.2954;          262   
     761;   682.1707;          235   
     762;   683.0460;          243   
     763;   683.9212;          261   
     764;   684.7965;          243   
     765;   685.6718;          261   
     766;   686.5471;          334   
     767;   687.4223;          313   
     768;   688.2976;          248   
     769;   689.1729;          219   
     770;   690.0482;          245   
     771;   690.9234;          238   
     772;   691.7987;          243   
     773;   692.6740;          247   
     774;   693.5493;          216   
     775;   694.4245;          235   
     776;   695.2998;          248   
     777;   696.1751;          241   
     778;   697.0504;          213   
     779;   697.9256;          237   
     780;   698.8009;          237   
     781;   699.6762;          224   
     782;   700.5515;          224   
     783;   701.4267;          222   
     784;   702.3020;          205   
     785;   703.1773;          210   
     786;   704.0526;          214   
     787;   704.9278;          216   
     788;   705.8031;          217   
     789;   706.6784;          209   
     790;   707.5537;          224   
     791;   708.4289;          200   
     792;   709.3042;          216   
     793;   710.1795;          218   
     794;   711.0548;          230   
     795;   711.9300;          223   
     796;   712.8053;          189   
     797;   713.6806;          241   
     798;   714.5559;          209   
     799;   715.4311;          203   
     800;   716.3064;          237   
     801;   717.1817;          243   
     802;   718.0570;          232   
     803;   718.9322;          220   
     804;   719.8075;          230   
     805;   720.6828;          213   
     806;   721.5581;          208   
     807;   722.4333;          208   
     808;   723.3086;          205   
     809;   724.1839;          214   
     810;   725.0592;          235   
     811;   725.9344;          203   
     812;   726.8097;          211   
     813;   727.6850;          187   
     814;   728.5603;          201   
     815;   729.4355;          212   
     816;   730.3108;          212   
     817;   731.1861;          245   
     818;   732.0614;          219   
     819;   732.9366;          212   
     820;   733.8119;          201   
     821;   734.6872;          215   
     822;   735.5625;          219   
     823;   736.4377;          214   
     824;   737.3130;          236   
     825;   738.1883;          205   
     826;   739.0636;          158   
     827;   739.9388;          206   
     828;   740.8141;          173   
     829;   741.6894;          193   
     830;   742.5647;          205   
     831;   743.4399;          217   
     832;   744.3152;          204   
     833;   745.1905;          176   
     834;   746.0658;          189   
     835;   746.9410;          186   
     836;   747.8163;          191   
     837;   748.6916;          197   
     838;   749.5669;          200   
     839;   750.4421;          192   
     840;   751.3174;          217   
     841;   752.1927;          184   
     842;   753.0680;          198   
     843;   753.9432;          195   
     844;   754.8185;          186   
     845;   755.6938;          193   
     846;   756.5691;          176   
     847;   757.4443;          194   
     848;   758.3196;          169   
     849;   759.1949;          168   
     850;   760.0702;          185   
     851;   760.9454;          171   
     852;   761.8207;          176   
     853;   762.6960;          179   
     854;   763.5713;          188   
     855;   764.4465;          165   
     856;   765.3218;          212   
     857;   766.1971;          185   
     858;   767.0724;          173   
     859;   767.9476;          156   
     860;   768.8229;          177   
     861;   769.6982;          182   
     862;   770.5735;          185   
     863;   771.4487;          169   
     864;   772.3240;          181   
     865;   773.1993;          187   
     866;   774.0746;          214   
     867;   774.9498;          472   
     868;   775.8251;         1051   
     869;   776.7004;         1204   
     870;   777.5757;          604   
     871;   778.4509;          264   
     872;   779.3262;          162   
     873;   780.2015;          170   
     874;   781.0768;          154   
     875;   781.9520;          186   
     876;   782.8273;          184   
     877;   783.7026;          186   
     878;   784.5779;          150   
     879;   785.4531;          152   
     880;   786.3284;          166   
     881;   787.2037;          155   
     882;   788.0790;          144   
     883;   788.9542;          143   
     884;   789.8295;          160   
     885;   790.7048;          168   
     886;   791.5801;          167   
     887;   792.4553;          174   
     888;   793.3306;          166   
     889;   794.2059;          135   
     890;   795.0812;          145   
     891;   795.9564;          158   
     892;   796.8317;          156   
     893;   797.7070;          163   
     894;   798.5823;          147   
     895;   799.4575;          166   
     896;   800.3328;          134   
     897;   801.2081;          170   
     898;   802.0834;          143   
     899;   802.9586;          176   
     900;   803.8339;          175   
     901;   804.7092;          164   
     902;   805.5845;          155   
     903;   806.4597;          169   
     904;   807.3350;          188   
     905;   808.2103;          173   
     906;   809.0856;          173   
     907;   809.9608;          130   
     908;   810.8361;          137   
     909;   811.7114;          141   
     910;   812.5867;          141   
     911;   813.4619;          142   
     912;   814.3372;          152   
     913;   815.2125;          156   
     914;   816.0878;          155   
     915;   816.9631;          161   
     916;   817.8383;          152   
     917;   818.7136;          155   
     918;   819.5889;          145   
     919;   820.4642;          168   
     920;   821.3394;          158   
     921;   822.2147;          138   
     922;   823.0900;          134   
     923;   823.9653;          139   
     924;   824.8405;          155   
     925;   825.7158;          152   
     926;   826.5911;          162   
     927;   827.4664;          143   
     928;   828.3416;          145   
     929;   829.2169;          133   
     930;   830.0922;          145   
     931;   830.9675;          152   
     932;   831.8427;          154   
     933;   832.7180;          154   
     934;   833.5933;          137   
     935;   834.4686;          128   
     936;   835.3438;          152   
     937;   836.2191;          147   
     938;   837.0944;          138   
     939;   837.9697;          149   
     940;   838.8449;          159   
     941;   839.7202;          142   
     942;   840.5955;          143   
     943;   841.4708;          137   
     944;   842.3460;          146   
     945;   843.2213;          130   
     946;   844.0966;          148   
     947;   844.9719;          142   
     948;   845.8471;          151   
     949;   846.7224;          151   
     950;   847.5977;          143   
     951;   848.4730;          135   
     952;   849.3482;          152   
     953;   850.2235;          146   
     954;   851.0988;          154   
     955;   851.9741;          129   
     956;   852.8493;          149   
     957;   853.7246;          150   
     958;   854.5999;          119   
     959;   855.4752;          126   
     960;   856.3504;          144   
     961;   857.2257;          153   
     962;   858.1010;          121   
     963;   858.9763;          139   
     964;   859.8515;          138   
     965;   860.7268;          138   
     966;   861.6021;          153   
     967;   862.4774;          193   
     968;   863.3526;          325   
     969;   864.2279;          475   
     970;   865.1032;          344   
     971;   865.9785;          172   
     972;   866.8537;          140   
     973;   867.7290;          160   
     974;   868.6043;          123   
     975;   869.4796;          148   
     976;   870.3548;          131   
     977;   871.2301;          127   
     978;   872.1054;          144   
     979;   872.9807;          126   
     980;   873.8559;          133   
     981;   874.7312;          124   
     982;   875.6065;          118   
     983;   876.4818;          141   
     984;   877.3570;          115   
     985;   878.2323;          125   
     986;   879.1076;          118   
     987;   879.9829;          101   
     988;   880.8581;          105   
     989;   881.7334;          102   
     990;   882.6087;          101   
     991;   883.4840;          120   
     992;   884.3592;          117   
     993;   885.2345;          119   
     994;   886.1098;          127   
     995;   886.9851;          110   
     996;   887.8603;          131   
     997;   888.7356;          136   
     998;   889.6109;          117   
     999;   890.4862;          100   
    1000;   891.3614;          113   
    1001;   892.2367;          111   
    1002;   893.1120;          113   
    1003;   893.9873;           97   
    1004;   894.8625;          106   
    1005;   895.7378;          113   
    1006;   896.6131;          119   
    1007;   897.4884;          122   
    1008;   898.3636;          119   
    1009;   899.2389;          115   
    1010;   900.1142;          128   
    1011;   900.9895;          107   
    1012;   901.8647;           86   
    1013;   902.7400;          102   
    1014;   903.6153;          113   
    1015;   904.4906;           95   
    1016;   905.3658;          102   
    1017;   906.2411;          120   
    1018;   907.1164;          138   
    1019;   907.9917;          134   
    1020;   908.8669;          117   
    1021;   909.7422;          121   
    1022;   910.6175;          117   
    1023;   911.4928;           90   
    1024;   912.3680;           98   
    1025;   913.2433;          101   
    1026;   914.1186;          102   
    1027;   914.9939;          126   
    1028;   915.8691;          145   
    1029;   916.7444;          116   
    1030;   917.6197;          101   
    1031;   918.4950;           95   
    1032;   919.3702;           95   
    1033;   920.2455;          116   
    1034;   921.1208;          102   
    1035;   921.9961;          113   
    1036;   922.8713;           91   
    1037;   923.7466;           98   
    1038;   924.6219;           92   
    1039;   925.4972;           87   
    1040;   926.3724;          108   
    1041;   927.2477;          100   
    1042;   928.1230;           77   
    1043;   928.9983;           94   
    1044;   929.8735;          104   
    1045;   930.7488;           98   
    1046;   931.6241;           90   
    1047;   932.4994;           83   
    1048;   933.3746;           88   
    1049;   934.2499;           89   
    1050;   935.1252;           90   
    1051;   936.0005;           86   
    1052;   936.8757;           82   
    1053;   937.7510;          113   
    1054;   938.6263;           99   
    1055;   939.5016;           97   
    1056;   940.3768;           97   
    1057;   941.2521;           89   
    1058;   942.1274;          104   
    1059;   943.0027;           98   
    1060;   943.8779;           70   
    1061;   944.7532;           86   
    1062;   945.6285;           70   
    1063;   946.5038;           72   
    1064;   947.3790;           76   
    1065;   948.2543;           90   
    1066;   949.1296;           82   
    1067;   950.0049;           92   
    1068;   950.8801;           90   
    1069;   951.7554;           76   
    1070;   952.6307;           86   
    1071;   953.5060;          109   
    1072;   954.3812;           81   
    1073;   955.2565;           76   
    1074;   956.1318;           77   
    1075;   957.0071;           91   
    1076;   957.8823;          147   
    1077;   958.7576;          385   
    1078;   959.6329;          877   
    1079;   960.5082;         1053   
    1080;   961.3834;          554   
    1081;   962.2587;          190   
    1082;   963.1340;          109   
    1083;   964.0093;          101   
    1084;   964.8845;          105   
    1085;   965.7598;          111   
    1086;   966.6351;           98   
    1087;   967.5104;           96   
    1088;   968.3856;           90   
    1089;   969.2609;           86   
    1090;   970.1362;           74   
    1091;   971.0115;           82   
    1092;   971.8867;           80   
    1093;   972.7620;           94   
    1094;   973.6373;           65   
    1095;   974.5126;           73   
    1096;   975.3878;           79   
    1097;   976.2631;           84   
    1098;   977.1384;           77   
    1099;   978.0137;           91   
    1100;   978.8889;           67   
    1101;   979.7642;           75   
    1102;   980.6395;           77   
    1103;   981.5148;           61   
    1104;   982.3900;           91   
    1105;   983.2653;           63   
    1106;   984.1406;           83   
    1107;   985.0159;           75   
    1108;   985.8911;           76   
    1109;   986.7664;           71   
    1110;   987.6417;           93   
    1111;   988.5170;           76   
    1112;   989.3922;           87   
    1113;   990.2675;           67   
    1114;   991.1428;           73   
    1115;   992.0181;           73   
    1116;   992.8933;           85   
    1117;   993.7686;           74   
    1118;   994.6439;           81   
    1119;   995.5192;           78   
    1120;   996.3944;           81   
    1121;   997.2697;           79   
    1122;   998.1450;           76   
    1123;   999.0203;           90   
    1124;   999.8955;          107   
    1125;  1000.7708;          127   
    1126;  1001.6461;          116   
    1127;  1002.5214;           82   
    1128;  1003.3966;           75   
    1129;  1004.2719;           73   
    1130;  1005.1472;           78   
    1131;  1006.0225;           65   
    1132;  1006.8977;           70   
    1133;  1007.7730;           70   
    1134;  1008.6483;           56   
    1135;  1009.5236;           76   
    1136;  1010.3988;           64   
    1137;  1011.2741;           61   
    1138;  1012.1494;           67   
    1139;  1013.0247;           64   
    1140;  1013.8999;           75   
    1141;  1014.7752;           56   
    1142;  1015.6505;           80   
    1143;  1016.5258;           67   
    1144;  1017.4010;           78   
    1145;  1018.2763;           60   
    1146;  1019.1516;           57   
    1147;  1020.0269;           68   
    1148;  1020.9021;           79   
    1149;  1021.7774;           66   
    1150;  1022.6527;           64   
    1151;  1023.5280;           55   
    1152;  1024.4032;           66   
    1153;  1025.2785;           72   
    1154;  1026.1538;           72   
    1155;  1027.0291;           67   
    1156;  1027.9043;           75   
    1157;  1028.7796;           72   
    1158;  1029.6549;           55   
    1159;  1030.5302;           68   
    1160;  1031.4054;           50   
    1161;  1032.2807;           54   
    1162;  1033.1560;           71   
    1163;  1034.0313;           62   
    1164;  1034.9065;           65   
    1165;  1035.7818;           65   
    1166;  1036.6571;           62   
    1167;  1037.5324;           68   
    1168;  1038.4076;           69   
    1169;  1039.2829;           72   
    1170;  1040.1582;           65   
    1171;  1041.0335;           55   
    1172;  1041.9087;           73   
    1173;  1042.7840;           72   
    1174;  1043.6593;           64   
    1175;  1044.5346;           74   
    1176;  1045.4098;           53   
    1177;  1046.2851;           58   
    1178;  1047.1604;           61   
    1179;  1048.0357;           72   
    1180;  1048.9109;           71   
    1181;  1049.7862;           66   
    1182;  1050.6615;           68   
    1183;  1051.5368;           45   
    1184;  1052.4120;           64   
    1185;  1053.2873;           79   
    1186;  1054.1626;           60   
    1187;  1055.0379;           62   
    1188;  1055.9131;           66   
    1189;  1056.7884;           65   
    1190;  1057.6637;           62   
    1191;  1058.5390;           64   
    1192;  1059.4142;           63   
    1193;  1060.2895;           63   
    1194;  1061.1648;           77   
    1195;  1062.0401;           72   
    1196;  1062.9153;           73   
    1197;  1063.7906;           71   
    1198;  1064.6659;           66   
    1199;  1065.5412;           63   
    1200;  1066.4164;           61   
    1201;  1067.2917;           55   
    1202;  1068.1670;           86   
    1203;  1069.0423;           64   
    1204;  1069.9175;           49   
    1205;  1070.7928;           50   
    1206;  1071.6681;           60   
    1207;  1072.5434;           60   
    1208;  1073.4186;           59   
    1209;  1074.2939;           56   
    1210;  1075.1692;           74   
    1211;  1076.0445;           56   
    1212;  1076.9197;           72   
    1213;  1077.7950;           68   
    1214;  1078.6703;           90   
    1215;  1079.5456;          206   
    1216;  1080.4208;          525   
    1217;  1081.2961;          716   
    1218;  1082.1714;          394   
    1219;  1083.0467;          154   
    1220;  1083.9219;          139   
    1221;  1084.7972;          173   
    1222;  1085.6725;          187   
    1223;  1086.5478;          100   
    1224;  1087.4230;           77   
    1225;  1088.2983;           57   
    1226;  1089.1736;           58   
    1227;  1090.0489;           68   
    1228;  1090.9241;           77   
    1229;  1091.7994;           75   
    1230;  1092.6747;           58   
    1231;  1093.5500;           52   
    1232;  1094.4252;           56   
    1233;  1095.3005;           57   
    1234;  1096.1758;           44   
    1235;  1097.0511;           64   
    1236;  1097.9263;           62   
    1237;  1098.8016;           42   
    1238;  1099.6769;           70   
    1239;  1100.5522;           65   
    1240;  1101.4274;           81   
    1241;  1102.3027;           64   
    1242;  1103.1780;           60   
    1243;  1104.0533;           69   
    1244;  1104.9285;          133   
    1245;  1105.8038;          352   
    1246;  1106.6791;          739   
    1247;  1107.5544;          837   
    1248;  1108.4296;          404   
    1249;  1109.3049;          121   
    1250;  1110.1802;           93   
    1251;  1111.0555;           70   
    1252;  1111.9307;           58   
    1253;  1112.8060;           68   
    1254;  1113.6813;           50   
    1255;  1114.5566;           82   
    1256;  1115.4318;           65   
    1257;  1116.3071;           75   
    1258;  1117.1824;           60   
    1259;  1118.0577;           63   
    1260;  1118.9329;           54   
    1261;  1119.8082;           58   
    1262;  1120.6835;           55   
    1263;  1121.5588;           48   
    1264;  1122.4340;           77   
    1265;  1123.3093;           58   
    1266;  1124.1846;           41   
    1267;  1125.0599;           55   
    1268;  1125.9351;           58   
    1269;  1126.8104;           59   
    1270;  1127.6857;           61   
    1271;  1128.5610;           53   
    1272;  1129.4362;           52   
    1273;  1130.3115;           63   
    1274;  1131.1868;           72   
    1275;  1132.0621;           51   
    1276;  1132.9373;           47   
    1277;  1133.8126;           69   
    1278;  1134.6879;           46   
    1279;  1135.5632;           46   
    1280;  1136.4384;           50   
    1281;  1137.3137;           49   
    1282;  1138.1890;           52   
    1283;  1139.0643;           51   
    1284;  1139.9395;           65   
    1285;  1140.8148;           43   
    1286;  1141.6901;           55   
    1287;  1142.5654;           62   
    1288;  1143.4406;           48   
    1289;  1144.3159;           51   
    1290;  1145.1912;           67   
    1291;  1146.0665;           60   
    1292;  1146.9417;           71   
    1293;  1147.8170;           55   
    1294;  1148.6923;           57   
    1295;  1149.5676;           73   
    1296;  1150.4428;           44   
    1297;  1151.3181;           59   
    1298;  1152.1934;           50   
    1299;  1153.0687;           55   
    1300;  1153.9439;           70   
    1301;  1154.8192;           48   
    1302;  1155.6945;           66   
    1303;  1156.5698;           46   
    1304;  1157.4450;           63   
    1305;  1158.3203;           56   
    1306;  1159.1956;           52   
    1307;  1160.0709;           41   
    1308;  1160.9461;           35   
    1309;  1161.8214;           45   
    1310;  1162.6967;           54   
    1311;  1163.5720;           61   
    1312;  1164.4472;           54   
    1313;  1165.3225;           41   
    1314;  1166.1978;           40   
    1315;  1167.0731;           57   
    1316;  1167.9483;           45   
    1317;  1168.8236;           49   
    1318;  1169.6989;           41   
    1319;  1170.5742;           55   
    1320;  1171.4494;           59   
    1321;  1172.3247;           48   
    1322;  1173.2000;           46   
    1323;  1174.0753;           55   
    1324;  1174.9505;           53   
    1325;  1175.8258;           55   
    1326;  1176.7011;           50   
    1327;  1177.5764;           70   
    1328;  1178.4516;           50   
    1329;  1179.3269;           54   
    1330;  1180.2022;           53   
    1331;  1181.0775;           54   
    1332;  1181.9527;           55   
    1333;  1182.8280;           62   
    1334;  1183.7033;           65   
    1335;  1184.5786;           46   
    1336;  1185.4538;           43   
    1337;  1186.3291;           57   
    1338;  1187.2044;           68   
    1339;  1188.0797;           39   
    1340;  1188.9549;           36   
    1341;  1189.8302;           36   
    1342;  1190.7055;           56   
    1343;  1191.5808;           53   
    1344;  1192.4560;           39   
    1345;  1193.3313;           39   
    1346;  1194.2066;           48   
    1347;  1195.0819;           45   
    1348;  1195.9571;           48   
    1349;  1196.8324;           46   
    1350;  1197.7077;           38   
    1351;  1198.5830;           39   
    1352;  1199.4582;           33   
    1353;  1200.3335;           36   
    1354;  1201.2088;           36   
    1355;  1202.0841;           53   
    1356;  1202.9593;           37   
    1357;  1203.8346;           46   
    1358;  1204.7099;           48   
    1359;  1205.5852;           64   
    1360;  1206.4604;           77   
    1361;  1207.3357;          130   
    1362;  1208.2110;           94   
    1363;  1209.0863;           46   
    1364;  1209.9615;           39   
    1365;  1210.8368;           40   
    1366;  1211.7121;           40   
    1367;  1212.5874;           33   
    1368;  1213.4626;           46   
    1369;  1214.3379;           34   
    1370;  1215.2132;           24   
    1371;  1216.0885;           45   
    1372;  1216.9637;           40   
    1373;  1217.8390;           36   
    1374;  1218.7143;           31   
    1375;  1219.5896;           38   
    1376;  1220.4648;           38   
    1377;  1221.3401;           45   
    1378;  1222.2154;           23   
    1379;  1223.0907;           44   
    1380;  1223.9659;           34   
    1381;  1224.8412;           31   
    1382;  1225.7165;           49   
    1383;  1226.5918;           47   
    1384;  1227.4670;           41   
    1385;  1228.3423;           46   
    1386;  1229.2176;           42   
    1387;  1230.0929;           38   
    1388;  1230.9681;           52   
    1389;  1231.8434;           48   
    1390;  1232.7187;           46   
    1391;  1233.5940;           28   
    1392;  1234.4692;           36   
    1393;  1235.3445;           22   
    1394;  1236.2198;           31   
    1395;  1237.0951;           34   
    1396;  1237.9703;           48   
    1397;  1238.8456;           43   
    1398;  1239.7209;           34   
    1399;  1240.5962;           38   
    1400;  1241.4714;           39   
    1401;  1242.3467;           28   
    1402;  1243.2220;           42   
    1403;  1244.0973;           51   
    1404;  1244.9725;           41   
    1405;  1245.8478;           35   
    1406;  1246.7231;           33   
    1407;  1247.5984;           45   
    1408;  1248.4736;           26   
    1409;  1249.3489;           32   
    1410;  1250.2242;           32   
    1411;  1251.0995;           31   
    1412;  1251.9747;           44   
    1413;  1252.8500;           26   
    1414;  1253.7253;           27   
    1415;  1254.6006;           36   
    1416;  1255.4758;           29   
    1417;  1256.3511;           29   
    1418;  1257.2264;           35   
    1419;  1258.1017;           40   
    1420;  1258.9769;           37   
    1421;  1259.8522;           30   
    1422;  1260.7275;           40   
    1423;  1261.6028;           28   
    1424;  1262.4780;           22   
    1425;  1263.3533;           37   
    1426;  1264.2286;           27   
    1427;  1265.1039;           35   
    1428;  1265.9791;           36   
    1429;  1266.8544;           37   
    1430;  1267.7297;           48   
    1431;  1268.6050;           48   
    1432;  1269.4802;           38   
    1433;  1270.3555;           37   
    1434;  1271.2308;           25   
    1435;  1272.1061;           29   
    1436;  1272.9813;           30   
    1437;  1273.8566;           32   
    1438;  1274.7319;           39   
    1439;  1275.6072;           34   
    1440;  1276.4824;           38   
    1441;  1277.3577;           36   
    1442;  1278.2330;           34   
    1443;  1279.1083;           32   
    1444;  1279.9835;           28   
    1445;  1280.8588;           27   
    1446;  1281.7341;           28   
    1447;  1282.6094;           28   
    1448;  1283.4846;           31   
    1449;  1284.3599;           37   
    1450;  1285.2352;           27   
    1451;  1286.1105;           34   
    1452;  1286.9857;           33   
    1453;  1287.8610;           28   
    1454;  1288.7363;           28   
    1455;  1289.6116;           29   
    1456;  1290.4868;           32   
    1457;  1291.3621;           61   
    1458;  1292.2374;          112   
    1459;  1293.1127;          109   
    1460;  1293.9879;           75   
    1461;  1294.8632;           34   
    1462;  1295.7385;           32   
    1463;  1296.6138;           32   
    1464;  1297.4890;           39   
    1465;  1298.3643;           30   
    1466;  1299.2396;           31   
    1467;  1300.1149;           31   
    1468;  1300.9901;           31   
    1469;  1301.8654;           21   
    1470;  1302.7407;           34   
    1471;  1303.6160;           31   
    1472;  1304.4912;           40   
    1473;  1305.3665;           38   
    1474;  1306.2418;           37   
    1475;  1307.1171;           40   
    1476;  1307.9923;           36   
    1477;  1308.8676;           31   
    1478;  1309.7429;           39   
    1479;  1310.6182;           40   
    1480;  1311.4934;           31   
    1481;  1312.3687;           43   
    1482;  1313.2440;           33   
    1483;  1314.1193;           51   
    1484;  1314.9945;           66   
    1485;  1315.8698;           54   
    1486;  1316.7451;           63   
    1487;  1317.6204;           28   
    1488;  1318.4956;           20   
    1489;  1319.3709;            8   
    1490;  1320.2462;           14   
    1491;  1321.1215;           14   
    1492;  1321.9967;           18   
    1493;  1322.8720;            7   
    1494;  1323.7473;            8   
    1495;  1324.6226;           13   
    1496;  1325.4978;           17   
    1497;  1326.3731;            9   
    1498;  1327.2484;           20   
    1499;  1328.1237;            8   
    1500;  1328.9989;            8   
    1501;  1329.8742;            9   
    1502;  1330.7495;           25   
    1503;  1331.6248;           13   
    1504;  1332.5000;           12   
    1505;  1333.3753;           13   
    1506;  1334.2506;           15   
    1507;  1335.1259;           19   
    1508;  1336.0011;            9   
    1509;  1336.8764;           10   
    1510;  1337.7517;           13   
    1511;  1338.6270;           10   
    1512;  1339.5022;            5   
    1513;  1340.3775;           11   
    1514;  1341.2528;           12   
    1515;  1342.1281;           12   
    1516;  1343.0033;           14   
    1517;  1343.8786;           10   
    1518;  1344.7539;            8   
    1519;  1345.6292;            5   
    1520;  1346.5044;           19   
    1521;  1347.3797;            3   
    1522;  1348.2550;           11   
    1523;  1349.1303;           13   
    1524;  1350.0055;            6   
    1525;  1350.8808;           10   
    1526;  1351.7561;            9   
    1527;  1352.6314;           12   
    1528;  1353.5066;            6   
    1529;  1354.3819;           18   
    1530;  1355.2572;           11   
    1531;  1356.1325;           13   
    1532;  1357.0077;           12   
    1533;  1357.8830;           18   
    1534;  1358.7583;           10   
    1535;  1359.6336;           11   
    1536;  1360.5088;           10   
    1537;  1361.3841;           15   
    1538;  1362.2594;           12   
    1539;  1363.1347;           10   
    1540;  1364.0099;            9   
    1541;  1364.8852;           15   
    1542;  1365.7605;            8   
    1543;  1366.6358;            7   
    1544;  1367.5110;            7   
    1545;  1368.3863;            7   
    1546;  1369.2616;           15   
    1547;  1370.1369;           14   
    1548;  1371.0121;           10   
    1549;  1371.8874;           12   
    1550;  1372.7627;           11   
    1551;  1373.6380;           11   
    1552;  1374.5132;            6   
    1553;  1375.3885;           13   
    1554;  1376.2638;            6   
    1555;  1377.1391;            7   
    1556;  1378.0143;           14   
    1557;  1378.8896;           10   
    1558;  1379.7649;           10   
    1559;  1380.6402;            6   
    1560;  1381.5154;           11   
    1561;  1382.3907;           10   
    1562;  1383.2660;            6   
    1563;  1384.1413;            8   
    1564;  1385.0165;           14   
    1565;  1385.8918;            9   
    1566;  1386.7671;           10   
    1567;  1387.6424;           10   
    1568;  1388.5176;            7   
    1569;  1389.3929;            9   
    1570;  1390.2682;           10   
    1571;  1391.1435;           13   
    1572;  1392.0187;           11   
    1573;  1392.8940;           10   
    1574;  1393.7693;           14   
    1575;  1394.6446;            8   
    1576;  1395.5198;           13   
    1577;  1396.3951;           11   
    1578;  1397.2704;           14   
    1579;  1398.1457;           53   
    1580;  1399.0209;          217   
    1581;  1399.8962;          547   
    1582;  1400.7715;          963   
    1583;  1401.6468;          758   
    1584;  1402.5220;          293   
    1585;  1403.3973;           67   
    1586;  1404.2726;           35   
    1587;  1405.1479;           20   
    1588;  1406.0231;           13   
    1589;  1406.8984;           12   
    1590;  1407.7737;            9   
    1591;  1408.6490;           16   
    1592;  1409.5242;           15   
    1593;  1410.3995;            7   
    1594;  1411.2748;           17   
    1595;  1412.1501;           12   
    1596;  1413.0253;           14   
    1597;  1413.9006;           12   
    1598;  1414.7759;           20   
    1599;  1415.6512;           12   
    1600;  1416.5264;           15   
    1601;  1417.4017;            8   
    1602;  1418.2770;            9   
    1603;  1419.1523;            5   
    1604;  1420.0275;           16   
    1605;  1420.9028;           10   
    1606;  1421.7781;           13   
    1607;  1422.6534;           10   
    1608;  1423.5286;           11   
    1609;  1424.4039;           11   
    1610;  1425.2792;            2   
    1611;  1426.1545;           14   
    1612;  1427.0297;            8   
    1613;  1427.9050;            7   
    1614;  1428.7803;           11   
    1615;  1429.6556;           12   
    1616;  1430.5308;           16   
    1617;  1431.4061;            8   
    1618;  1432.2814;            7   
    1619;  1433.1567;            4   
    1620;  1434.0319;           11   
    1621;  1434.9072;           11   
    1622;  1435.7825;           15   
    1623;  1436.6578;            3   
    1624;  1437.5330;            7   
    1625;  1438.4083;            7   
    1626;  1439.2836;            7   
    1627;  1440.1589;           16   
    1628;  1441.0341;            8   
    1629;  1441.9094;            6   
    1630;  1442.7847;           13   
    1631;  1443.6600;            7   
    1632;  1444.5352;           10   
    1633;  1445.4105;           11   
    1634;  1446.2858;           10   
    1635;  1447.1611;           12   
    1636;  1448.0363;            8   
    1637;  1448.9116;           19   
    1638;  1449.7869;           28   
    1639;  1450.6622;           49   
    1640;  1451.5374;           97   
    1641;  1452.4127;          216   
    1642;  1453.2880;          284   
    1643;  1454.1633;          235   
    1644;  1455.0385;           77   
    1645;  1455.9138;           21   
    1646;  1456.7891;           13   
    1647;  1457.6644;           13   
    1648;  1458.5396;            5   
    1649;  1459.4149;            7   
    1650;  1460.2902;            6   
    1651;  1461.1655;            8   
    1652;  1462.0407;            8   
    1653;  1462.9160;            8   
    1654;  1463.7913;            8   
    1655;  1464.6666;            6   
    1656;  1465.5418;            7   
    1657;  1466.4171;            7   
    1658;  1467.2924;            7   
    1659;  1468.1677;            4   
    1660;  1469.0429;           10   
    1661;  1469.9182;            5   
    1662;  1470.7935;            9   
    1663;  1471.6688;           10   
    1664;  1472.5440;            8   
    1665;  1473.4193;            5   
    1666;  1474.2946;           10   
    1667;  1475.1699;            4   
    1668;  1476.0451;            8   
    1669;  1476.9204;            5   
    1670;  1477.7957;            4   
    1671;  1478.6710;            4   
    1672;  1479.5462;            3   
    1673;  1480.4215;            3   
    1674;  1481.2968;            5   
    1675;  1482.1721;            3   
    1676;  1483.0473;            6   
    1677;  1483.9226;            9   
    1678;  1484.7979;            4   
    1679;  1485.6732;            7   
    1680;  1486.5484;            5   
    1681;  1487.4237;           10   
    1682;  1488.2990;            5   
    1683;  1489.1743;            4   
    1684;  1490.0495;           10   
    1685;  1490.9248;            6   
    1686;  1491.8001;            8   
    1687;  1492.6754;            5   
    1688;  1493.5506;            5   
    1689;  1494.4259;            4   
    1690;  1495.3012;           10   
    1691;  1496.1765;            5   
    1692;  1497.0517;            7   
    1693;  1497.9270;            3   
    1694;  1498.8023;            4   
    1695;  1499.6776;           13   
    1696;  1500.5528;           11   
    1697;  1501.4281;            4   
    1698;  1502.3034;            5   
    1699;  1503.1787;            6   
    1700;  1504.0539;            8   
    1701;  1504.9292;            3   
    1702;  1505.8045;            3   
    1703;  1506.6798;            6   
    1704;  1507.5550;            9   
    1705;  1508.4303;            4   
    1706;  1509.3056;            6   
    1707;  1510.1809;            4   
    1708;  1511.0561;            4   
    1709;  1511.9314;            5   
    1710;  1512.8067;            3   
    1711;  1513.6820;            9   
    1712;  1514.5572;            8   
    1713;  1515.4325;            7   
    1714;  1516.3078;            2   
    1715;  1517.1831;            5   
    1716;  1518.0583;            6   
    1717;  1518.9336;           14   
    1718;  1519.8089;           14   
    1719;  1520.6842;           25   
    1720;  1521.5594;           11   
    1721;  1522.4347;            6   
    1722;  1523.3100;            9   
    1723;  1524.1853;            4   
    1724;  1525.0605;            4   
    1725;  1525.9358;            3   
    1726;  1526.8111;            4   
    1727;  1527.6864;            6   
    1728;  1528.5616;            4   
    1729;  1529.4369;            4   
    1730;  1530.3122;            4   
    1731;  1531.1875;            4   
    1732;  1532.0627;            3   
    1733;  1532.9380;            4   
    1734;  1533.8133;            5   
    1735;  1534.6886;            8   
    1736;  1535.5638;            4   
    1737;  1536.4391;            4   
    1738;  1537.3144;           11   
    1739;  1538.1897;            3   
    1740;  1539.0649;            5   
    1741;  1539.9402;            7   
    1742;  1540.8155;            5   
    1743;  1541.6908;            4   
    1744;  1542.5660;            6   
    1745;  1543.4413;            4   
    1746;  1544.3166;            4   
    1747;  1545.1919;            6   
    1748;  1546.0671;            3   
    1749;  1546.9424;            7   
    1750;  1547.8177;            9   
    1751;  1548.6930;            5   
    1752;  1549.5682;            5   
    1753;  1550.4435;            3   
    1754;  1551.3188;            7   
    1755;  1552.1941;            6   
    1756;  1553.0693;            5   
    1757;  1553.9446;            5   
    1758;  1554.8199;            7   
    1759;  1555.6952;            7   
    1760;  1556.5704;            4   
    1761;  1557.4457;            5   
    1762;  1558.3210;            6   
    1763;  1559.1963;            3   
    1764;  1560.0715;            5   
    1765;  1560.9468;           10   
    1766;  1561.8221;            4   
    1767;  1562.6974;            7   
    1768;  1563.5726;            8   
    1769;  1564.4479;            7   
    1770;  1565.3232;            2   
    1771;  1566.1985;            5   
    1772;  1567.0737;            1   
    1773;  1567.9490;            4   
    1774;  1568.8243;            5   
    1775;  1569.6996;            4   
    1776;  1570.5748;            4   
    1777;  1571.4501;            6   
    1778;  1572.3254;            6   
    1779;  1573.2007;            2   
    1780;  1574.0759;           10   
    1781;  1574.9512;            7   
    1782;  1575.8265;            3   
    1783;  1576.7018;            5   
    1784;  1577.5770;            4   
    1785;  1578.4523;            8   
    1786;  1579.3276;            6   
    1787;  1580.2029;            9   
    1788;  1581.0781;            8   
    1789;  1581.9534;            6   
    1790;  1582.8287;            6   
    1791;  1583.7040;            6   
    1792;  1584.5792;            6   
    1793;  1585.4545;           11   
    1794;  1586.3298;            7   
    1795;  1587.2051;            5   
    1796;  1588.0803;            2   
    1797;  1588.9556;            2   
    1798;  1589.8309;            6   
    1799;  1590.7062;            6   
    1800;  1591.5814;            1   
    1801;  1592.4567;            5   
    1802;  1593.3320;            6   
    1803;  1594.2073;            4   
    1804;  1595.0825;            8   
    1805;  1595.9578;            8   
    1806;  1596.8331;            6   
    1807;  1597.7084;            9   
    1808;  1598.5836;            5   
    1809;  1599.4589;            2   
    1810;  1600.3342;            9   
    1811;  1601.2095;            3   
    1812;  1602.0847;            6   
    1813;  1602.9600;            3   
    1814;  1603.8353;            5   
    1815;  1604.7106;            4   
    1816;  1605.5858;            4   
    1817;  1606.4611;            6   
    1818;  1607.3364;            6   
    1819;  1608.2117;            7   
    1820;  1609.0869;           11   
    1821;  1609.9622;            3   
    1822;  1610.8375;            4   
    1823;  1611.7128;            8   
    1824;  1612.5880;            5   
    1825;  1613.4633;            5   
    1826;  1614.3386;            2   
    1827;  1615.2139;           10   
    1828;  1616.0891;            8   
    1829;  1616.9644;            2   
    1830;  1617.8397;            6   
    1831;  1618.7150;            4   
    1832;  1619.5902;            3   
    1833;  1620.4655;            5   
    1834;  1621.3408;            8   
    1835;  1622.2161;            4   
    1836;  1623.0913;            7   
    1837;  1623.9666;            1   
    1838;  1624.8419;            6   
    1839;  1625.7172;            3   
    1840;  1626.5924;            2   
    1841;  1627.4677;            5   
    1842;  1628.3430;            3   
    1843;  1629.2183;            6   
    1844;  1630.0935;            4   
    1845;  1630.9688;            4   
    1846;  1631.8441;            4   
    1847;  1632.7194;            3   
    1848;  1633.5946;            4   
    1849;  1634.4699;            2   
    1850;  1635.3452;            3   
    1851;  1636.2205;            0   
    1852;  1637.0957;            2   
    1853;  1637.9710;            6   
    1854;  1638.8463;            5   
    1855;  1639.7216;            5   
    1856;  1640.5968;            5   
    1857;  1641.4721;            1   
    1858;  1642.3474;            2   
    1859;  1643.2227;            4   
    1860;  1644.0979;            2   
    1861;  1644.9732;            2   
    1862;  1645.8485;            2   
    1863;  1646.7238;            2   
    1864;  1647.5990;            3   
    1865;  1648.4743;            4   
    1866;  1649.3496;            3   
    1867;  1650.2249;            0   
    1868;  1651.1001;            8   
    1869;  1651.9754;            5   
    1870;  1652.8507;            3   
    1871;  1653.7260;            3   
    1872;  1654.6012;            3   
    1873;  1655.4765;            1   
    1874;  1656.3518;            2   
    1875;  1657.2271;            0   
    1876;  1658.1023;            4   
    1877;  1658.9776;            6   
    1878;  1659.8529;            3   
    1879;  1660.7282;            2   
    1880;  1661.6034;            0   
    1881;  1662.4787;            4   
    1882;  1663.3540;            4   
    1883;  1664.2293;            3   
    1884;  1665.1045;            1   
    1885;  1665.9798;            5   
    1886;  1666.8551;            4   
    1887;  1667.7304;            6   
    1888;  1668.6056;            2   
    1889;  1669.4809;            6   
    1890;  1670.3562;            3   
    1891;  1671.2315;            2   
    1892;  1672.1067;            3   
    1893;  1672.9820;            7   
    1894;  1673.8573;            3   
    1895;  1674.7326;            1   
    1896;  1675.6078;            2   
    1897;  1676.4831;            8   
    1898;  1677.3584;            1   
    1899;  1678.2337;            4   
    1900;  1679.1089;            2   
    1901;  1679.9842;            3   
    1902;  1680.8595;            4   
    1903;  1681.7348;            1   
    1904;  1682.6100;            1   
    1905;  1683.4853;            4   
    1906;  1684.3606;            5   
    1907;  1685.2359;            2   
    1908;  1686.1111;            6   
    1909;  1686.9864;            4   
    1910;  1687.8617;            3   
    1911;  1688.7370;            2   
    1912;  1689.6122;            3   
    1913;  1690.4875;            8   
    1914;  1691.3628;            4   
    1915;  1692.2381;            1   
    1916;  1693.1133;            3   
    1917;  1693.9886;            3   
    1918;  1694.8639;            2   
    1919;  1695.7392;            3   
    1920;  1696.6144;            5   
    1921;  1697.4897;            5   
    1922;  1698.3650;            2   
    1923;  1699.2403;            7   
    1924;  1700.1155;            7   
    1925;  1700.9908;            2   
    1926;  1701.8661;            2   
    1927;  1702.7414;            4   
    1928;  1703.6166;            4   
    1929;  1704.4919;            3   
    1930;  1705.3672;            2   
    1931;  1706.2425;            5   
    1932;  1707.1177;            4   
    1933;  1707.9930;            4   
    1934;  1708.8683;            0   
    1935;  1709.7436;            6   
    1936;  1710.6188;            2   
    1937;  1711.4941;            3   
    1938;  1712.3694;            1   
    1939;  1713.2447;            1   
    1940;  1714.1199;            1   
    1941;  1714.9952;            3   
    1942;  1715.8705;            0   
    1943;  1716.7458;            3   
    1944;  1717.6210;            6   
    1945;  1718.4963;            5   
    1946;  1719.3716;            6   
    1947;  1720.2469;            7   
    1948;  1721.1221;            7   
    1949;  1721.9974;            0   
    1950;  1722.8727;            1   
    1951;  1723.7480;            1   
    1952;  1724.6232;            1   
    1953;  1725.4985;            3   
    1954;  1726.3738;            4   
    1955;  1727.2491;            2   
    1956;  1728.1243;            6   
    1957;  1728.9996;            0   
    1958;  1729.8749;            3   
    1959;  1730.7502;            2   
    1960;  1731.6254;            3   
    1961;  1732.5007;            3   
    1962;  1733.3760;            1   
    1963;  1734.2513;            5   
    1964;  1735.1265;            2   
    1965;  1736.0018;            2   
    1966;  1736.8771;            4   
    1967;  1737.7524;            4   
    1968;  1738.6276;            3   
    1969;  1739.5029;            0   
    1970;  1740.3782;            2   
    1971;  1741.2535;            5   
    1972;  1742.1287;            3   
    1973;  1743.0040;            2   
    1974;  1743.8793;            1   
    1975;  1744.7546;            4   
    1976;  1745.6298;            1   
    1977;  1746.5051;            2   
    1978;  1747.3804;            3   
    1979;  1748.2557;            0   
    1980;  1749.1309;            0   
    1981;  1750.0062;            0   
    1982;  1750.8815;            0   
    1983;  1751.7568;            0   
    1984;  1752.6320;            0   
    1985;  1753.5073;            0   
    1986;  1754.3826;            0   
    1987;  1755.2579;            0   
    1988;  1756.1331;            0   
    1989;  1757.0084;            0   
    1990;  1757.8837;            0   
    1991;  1758.7590;            0   
    1992;  1759.6342;            0   
    1993;  1760.5095;            0   
    1994;  1761.3848;            0   
    1995;  1762.2601;            0   
    1996;  1763.1353;            0   
    1997;  1764.0106;            0   
    1998;  1764.8859;            0   
    1999;  1765.7612;            0   
    2000;  1766.6364;            0   
    2001;  1767.5117;            0   
    2002;  1768.3870;            0   
    2003;  1769.2623;            0   
    2004;  1770.1375;            0   
    2005;  1771.0128;            0   
    2006;  1771.8881;            0   
    2007;  1772.7634;            0   
    2008;  1773.6386;            0   
    2009;  1774.5139;            0   
    2010;  1775.3892;            0   
    2011;  1776.2645;            0   
    2012;  1777.1397;            0   
    2013;  1778.0150;            0   
    2014;  1778.8903;            0   
    2015;  1779.7656;            0   
    2016;  1780.6408;            0   
    2017;  1781.5161;            0   
    2018;  1782.3914;            0   
    2019;  1783.2667;            0   
    2020;  1784.1419;            0   
    2021;  1785.0172;            0   
    2022;  1785.8925;            0   
    2023;  1786.7678;            0   
    2024;  1787.6430;            0   
    2025;  1788.5183;            0   
    2026;  1789.3936;            0   
    2027;  1790.2689;            0   
    2028;  1791.1441;            0   
    2029;  1792.0194;            0   
    2030;  1792.8947;            0   
    2031;  1793.7700;            0   
    2032;  1794.6452;            0   
    2033;  1795.5205;            0   
    2034;  1796.3958;            0   
    2035;  1797.2711;            0   
    2036;  1798.1463;            0   
    2037;  1799.0216;            0   
    2038;  1799.8969;            0   
    2039;  1800.7722;            0   
    2040;  1801.6474;            0   
    2041;  1802.5227;            0   
    2042;  1803.3980;            0   
    2043;  1804.2733;            0   
    2044;  1805.1485;            0   
    2045;  1806.0238;            0   
    2046;  1806.8991;            0   
    2047;  1807.7744;            0   
    2048;  1808.6496;            0   
ROI Nummer; Anfangskanal; Endkanal; Anfangsenergie keV ; Endenergie keV; Nettoimpulse; Bruttoimpulse; Untergrundimpulse
In den Daten wurden keine Linien gefunden
ROI Nummer; prozentualer Fehler der Lage; Lage keV; FWHM keV; FWTM keV; FWTM/FWHM Verhltnis; H/L Verhltnis
No Peak records found in data.
Name; Energie keV; Flags; Aktivitt uCi/Unit; Aktivittsfehler %; NWG uCi/Unit; MDA Error %
Es wurden keine Nuklidergebnisse gefunden.
Name; Erwartete Endergie keV; Gemessene Energie keV; Differenz von erwarteter keV; FWHM; Flags; Aktivitt uCi/Unit; Aktivittsfehler %
Es wurden keine Nuklidergebnisse gefunden.
