Kanal;   Energie(keV); Impulse
       1;    16.9617;         1550   
       2;    17.8370;         1604   
       3;    18.7122;         1547   
       4;    19.5875;         1439   
       5;    20.4628;         1404   
       6;    21.3381;         1322   
       7;    22.2133;         1334   
       8;    23.0886;         1335   
       9;    23.9639;         1291   
      10;    24.8392;         1301   
      11;    25.7144;         1196   
      12;    26.5897;         1224   
      13;    27.4650;         1236   
      14;    28.3403;         1213   
      15;    29.2155;         1142   
      16;    30.0908;         1196   
      17;    30.9661;         1117   
      18;    31.8414;         1181   
      19;    32.7166;         1209   
      20;    33.5919;         1123   
      21;    34.4672;         1119   
      22;    35.3425;         1167   
      23;    36.2177;         1131   
      24;    37.0930;         1093   
      25;    37.9683;         1102   
      26;    38.8436;         1070   
      27;    39.7188;         1114   
      28;    40.5941;         1100   
      29;    41.4694;         1166   
      30;    42.3447;         1117   
      31;    43.2199;         1086   
      32;    44.0952;         1010   
      33;    44.9705;         1118   
      34;    45.8458;         1054   
      35;    46.7210;         1098   
      36;    47.5963;         1097   
      37;    48.4716;         1121   
      38;    49.3469;         1060   
      39;    50.2221;          986   
      40;    51.0974;         1027   
      41;    51.9727;          984   
      42;    52.8480;         1008   
      43;    53.7232;         1007   
      44;    54.5985;          976   
      45;    55.4738;          933   
      46;    56.3491;          955   
      47;    57.2243;          951   
      48;    58.0996;          974   
      49;    58.9749;          982   
      50;    59.8502;         1018   
      51;    60.7254;         1055   
      52;    61.6007;          991   
      53;    62.4760;         1029   
      54;    63.3513;         1026   
      55;    64.2265;         1006   
      56;    65.1018;         1011   
      57;    65.9771;         1030   
      58;    66.8524;         1004   
      59;    67.7276;         1073   
      60;    68.6029;         1098   
      61;    69.4782;         1100   
      62;    70.3535;         1114   
      63;    71.2287;         1147   
      64;    72.1040;         1124   
      65;    72.9793;         1197   
      66;    73.8546;         1622   
      67;    74.7298;         1989   
      68;    75.6051;         1845   
      69;    76.4804;         2468   
      70;    77.3557;         2134   
      71;    78.2309;         1247   
      72;    79.1062;         1177   
      73;    79.9815;         1217   
      74;    80.8568;         1160   
      75;    81.7320;         1217   
      76;    82.6073;         1167   
      77;    83.4826;         1289   
      78;    84.3579;         1324   
      79;    85.2331;         1510   
      80;    86.1084;         2103   
      81;    86.9837;         2004   
      82;    87.8590;         1524   
      83;    88.7342;         1570   
      84;    89.6095;         1498   
      85;    90.4848;         1292   
      86;    91.3601;         1268   
      87;    92.2353;         1228   
      88;    93.1106;         1262   
      89;    93.9859;         1296   
      90;    94.8612;         1248   
      91;    95.7364;         1251   
      92;    96.6117;         1275   
      93;    97.4870;         1326   
      94;    98.3623;         1324   
      95;    99.2375;         1277   
      96;   100.1128;         1290   
      97;   100.9881;         1317   
      98;   101.8634;         1247   
      99;   102.7386;         1288   
     100;   103.6139;         1311   
     101;   104.4892;         1328   
     102;   105.3645;         1319   
     103;   106.2397;         1356   
     104;   107.1150;         1368   
     105;   107.9903;         1351   
     106;   108.8656;         1342   
     107;   109.7408;         1395   
     108;   110.6161;         1420   
     109;   111.4914;         1397   
     110;   112.3667;         1374   
     111;   113.2419;         1426   
     112;   114.1172;         1435   
     113;   114.9925;         1402   
     114;   115.8678;         1471   
     115;   116.7430;         1417   
     116;   117.6183;         1442   
     117;   118.4936;         1433   
     118;   119.3689;         1436   
     119;   120.2441;         1461   
     120;   121.1194;         1528   
     121;   121.9947;         3026   
     122;   122.8700;         8662   
     123;   123.7452;         7503   
     124;   124.6205;         2321   
     125;   125.4958;         1405   
     126;   126.3711;         1266   
     127;   127.2463;         1331   
     128;   128.1216;         1342   
     129;   128.9969;         1282   
     130;   129.8722;         1226   
     131;   130.7474;         1197   
     132;   131.6227;         1246   
     133;   132.4980;         1267   
     134;   133.3733;         1273   
     135;   134.2485;         1217   
     136;   135.1238;         1196   
     137;   135.9991;         1246   
     138;   136.8744;         1290   
     139;   137.7496;         1341   
     140;   138.6249;         1208   
     141;   139.5002;         1213   
     142;   140.3755;         1237   
     143;   141.2507;         1301   
     144;   142.1260;         1248   
     145;   143.0013;         1231   
     146;   143.8766;         1284   
     147;   144.7518;         1334   
     148;   145.6271;         1290   
     149;   146.5024;         1254   
     150;   147.3777;         1273   
     151;   148.2529;         1284   
     152;   149.1282;         1301   
     153;   150.0035;         1245   
     154;   150.8788;         1353   
     155;   151.7540;         1275   
     156;   152.6293;         1249   
     157;   153.5046;         1264   
     158;   154.3799;         1243   
     159;   155.2551;         1316   
     160;   156.1304;         1228   
     161;   157.0057;         1246   
     162;   157.8810;         1286   
     163;   158.7562;         1323   
     164;   159.6315;         1267   
     165;   160.5068;         1189   
     166;   161.3821;         1278   
     167;   162.2573;         1310   
     168;   163.1326;         1245   
     169;   164.0079;         1237   
     170;   164.8832;         1225   
     171;   165.7584;         1225   
     172;   166.6337;         1237   
     173;   167.5090;         1257   
     174;   168.3843;         1234   
     175;   169.2595;         1219   
     176;   170.1348;         1206   
     177;   171.0101;         1248   
     178;   171.8854;         1219   
     179;   172.7606;         1289   
     180;   173.6359;         1269   
     181;   174.5112;         1237   
     182;   175.3865;         1327   
     183;   176.2617;         1316   
     184;   177.1370;         1296   
     185;   178.0123;         1240   
     186;   178.8876;         1278   
     187;   179.7628;         1312   
     188;   180.6381;         1209   
     189;   181.5134;         1327   
     190;   182.3887;         1384   
     191;   183.2639;         1402   
     192;   184.1392;         1449   
     193;   185.0145;         1468   
     194;   185.8898;         1597   
     195;   186.7650;         1653   
     196;   187.6403;         1732   
     197;   188.5156;         1729   
     198;   189.3909;         1616   
     199;   190.2661;         1632   
     200;   191.1414;         1636   
     201;   192.0167;         1630   
     202;   192.8920;         1618   
     203;   193.7672;         1581   
     204;   194.6425;         1567   
     205;   195.5178;         1539   
     206;   196.3931;         1615   
     207;   197.2683;         1568   
     208;   198.1436;         1586   
     209;   199.0189;         1500   
     210;   199.8942;         1553   
     211;   200.7694;         1558   
     212;   201.6447;         1569   
     213;   202.5200;         1432   
     214;   203.3953;         1404   
     215;   204.2705;         1471   
     216;   205.1458;         1429   
     217;   206.0211;         1414   
     218;   206.8964;         1437   
     219;   207.7716;         1441   
     220;   208.6469;         1387   
     221;   209.5222;         1433   
     222;   210.3975;         1436   
     223;   211.2727;         1345   
     224;   212.1480;         1398   
     225;   213.0233;         1334   
     226;   213.8986;         1396   
     227;   214.7738;         1329   
     228;   215.6491;         1288   
     229;   216.5244;         1344   
     230;   217.3997;         1292   
     231;   218.2749;         1269   
     232;   219.1502;         1245   
     233;   220.0255;         1322   
     234;   220.9008;         1276   
     235;   221.7760;         1286   
     236;   222.6513;         1270   
     237;   223.5266;         1193   
     238;   224.4019;         1222   
     239;   225.2771;         1217   
     240;   226.1524;         1170   
     241;   227.0277;         1150   
     242;   227.9030;         1115   
     243;   228.7782;         1174   
     244;   229.6535;         1214   
     245;   230.5288;         1190   
     246;   231.4041;         1064   
     247;   232.2793;         1129   
     248;   233.1546;         1081   
     249;   234.0299;         1069   
     250;   234.9052;         1098   
     251;   235.7804;         1040   
     252;   236.6557;         1065   
     253;   237.5310;         1109   
     254;   238.4063;         1100   
     255;   239.2815;         1111   
     256;   240.1568;         1063   
     257;   241.0321;          992   
     258;   241.9074;         1027   
     259;   242.7826;         1008   
     260;   243.6579;         1123   
     261;   244.5332;         1902   
     262;   245.4085;         2673   
     263;   246.2837;         1643   
     264;   247.1590;          960   
     265;   248.0343;          937   
     266;   248.9096;          900   
     267;   249.7848;          931   
     268;   250.6601;          889   
     269;   251.5354;          956   
     270;   252.4107;          905   
     271;   253.2859;          899   
     272;   254.1612;          908   
     273;   255.0365;          878   
     274;   255.9118;          835   
     275;   256.7870;          851   
     276;   257.6623;          897   
     277;   258.5376;          939   
     278;   259.4129;          820   
     279;   260.2881;          861   
     280;   261.1634;          853   
     281;   262.0387;          850   
     282;   262.9140;          832   
     283;   263.7892;          837   
     284;   264.6645;          857   
     285;   265.5398;          840   
     286;   266.4151;          809   
     287;   267.2903;          895   
     288;   268.1656;          817   
     289;   269.0409;          771   
     290;   269.9162;          839   
     291;   270.7914;          818   
     292;   271.6667;          831   
     293;   272.5420;          862   
     294;   273.4173;          793   
     295;   274.2925;          795   
     296;   275.1678;          822   
     297;   276.0431;          850   
     298;   276.9184;          792   
     299;   277.7936;          837   
     300;   278.6689;          814   
     301;   279.5442;          800   
     302;   280.4195;          815   
     303;   281.2947;          798   
     304;   282.1700;          770   
     305;   283.0453;          812   
     306;   283.9206;          798   
     307;   284.7958;          752   
     308;   285.6711;          803   
     309;   286.5464;          769   
     310;   287.4217;          799   
     311;   288.2969;          850   
     312;   289.1722;          822   
     313;   290.0475;          758   
     314;   290.9228;          810   
     315;   291.7980;          802   
     316;   292.6733;          775   
     317;   293.5486;          775   
     318;   294.4239;          784   
     319;   295.2991;          813   
     320;   296.1744;          882   
     321;   297.0497;          828   
     322;   297.9250;          747   
     323;   298.8002;          761   
     324;   299.6755;          790   
     325;   300.5508;          739   
     326;   301.4261;          775   
     327;   302.3013;          753   
     328;   303.1766;          793   
     329;   304.0519;          826   
     330;   304.9272;          762   
     331;   305.8024;          800   
     332;   306.6777;          785   
     333;   307.5530;          799   
     334;   308.4283;          813   
     335;   309.3035;          712   
     336;   310.1788;          765   
     337;   311.0541;          745   
     338;   311.9294;          758   
     339;   312.8046;          725   
     340;   313.6799;          762   
     341;   314.5552;          714   
     342;   315.4305;          787   
     343;   316.3057;          723   
     344;   317.1810;          760   
     345;   318.0563;          737   
     346;   318.9316;          701   
     347;   319.8068;          721   
     348;   320.6821;          716   
     349;   321.5574;          712   
     350;   322.4327;          779   
     351;   323.3079;          752   
     352;   324.1832;          759   
     353;   325.0585;          742   
     354;   325.9338;          743   
     355;   326.8090;          713   
     356;   327.6843;          671   
     357;   328.5596;          771   
     358;   329.4349;          793   
     359;   330.3101;          742   
     360;   331.1854;          743   
     361;   332.0607;          743   
     362;   332.9360;          713   
     363;   333.8112;          720   
     364;   334.6865;          699   
     365;   335.5618;          690   
     366;   336.4371;          696   
     367;   337.3123;          731   
     368;   338.1876;          697   
     369;   339.0629;          743   
     370;   339.9382;          684   
     371;   340.8134;          692   
     372;   341.6887;          709   
     373;   342.5640;          937   
     374;   343.4393;         2736   
     375;   344.3145;         5143   
     376;   345.1898;         3146   
     377;   346.0651;         1071   
     378;   346.9404;          721   
     379;   347.8156;          673   
     380;   348.6909;          719   
     381;   349.5662;          739   
     382;   350.4415;          735   
     383;   351.3167;          776   
     384;   352.1920;          767   
     385;   353.0673;          754   
     386;   353.9426;          711   
     387;   354.8178;          662   
     388;   355.6931;          718   
     389;   356.5684;          714   
     390;   357.4437;          699   
     391;   358.3189;          694   
     392;   359.1942;          695   
     393;   360.0695;          679   
     394;   360.9448;          702   
     395;   361.8200;          646   
     396;   362.6953;          688   
     397;   363.5706;          714   
     398;   364.4459;          688   
     399;   365.3211;          669   
     400;   366.1964;          662   
     401;   367.0717;          724   
     402;   367.9470;          789   
     403;   368.8222;          770   
     404;   369.6975;          754   
     405;   370.5728;          690   
     406;   371.4481;          682   
     407;   372.3233;          659   
     408;   373.1986;          644   
     409;   374.0739;          640   
     410;   374.9492;          670   
     411;   375.8244;          673   
     412;   376.6997;          664   
     413;   377.5750;          703   
     414;   378.4503;          649   
     415;   379.3255;          688   
     416;   380.2008;          731   
     417;   381.0761;          629   
     418;   381.9514;          720   
     419;   382.8266;          685   
     420;   383.7019;          749   
     421;   384.5772;          697   
     422;   385.4525;          707   
     423;   386.3277;          744   
     424;   387.2030;          705   
     425;   388.0783;          730   
     426;   388.9536;          680   
     427;   389.8288;          680   
     428;   390.7041;          716   
     429;   391.5794;          742   
     430;   392.4547;          707   
     431;   393.3299;          681   
     432;   394.2052;          752   
     433;   395.0805;          721   
     434;   395.9558;          710   
     435;   396.8310;          705   
     436;   397.7063;          718   
     437;   398.5816;          709   
     438;   399.4569;          765   
     439;   400.3321;          813   
     440;   401.2074;          706   
     441;   402.0827;          763   
     442;   402.9580;          742   
     443;   403.8332;          768   
     444;   404.7085;          768   
     445;   405.5838;          717   
     446;   406.4591;          744   
     447;   407.3343;          753   
     448;   408.2096;          730   
     449;   409.0849;          786   
     450;   409.9602;          948   
     451;   410.8354;         1025   
     452;   411.7107;          929   
     453;   412.5860;          768   
     454;   413.4613;          753   
     455;   414.3365;          770   
     456;   415.2118;          828   
     457;   416.0871;          799   
     458;   416.9624;          829   
     459;   417.8376;          754   
     460;   418.7129;          758   
     461;   419.5882;          819   
     462;   420.4635;          792   
     463;   421.3387;          823   
     464;   422.2140;          776   
     465;   423.0893;          851   
     466;   423.9646;          782   
     467;   424.8398;          863   
     468;   425.7151;          854   
     469;   426.5904;          771   
     470;   427.4657;          863   
     471;   428.3409;          786   
     472;   429.2162;          828   
     473;   430.0915;          827   
     474;   430.9668;          776   
     475;   431.8420;          838   
     476;   432.7173;          842   
     477;   433.5926;          801   
     478;   434.4679;          830   
     479;   435.3431;          861   
     480;   436.2184;          858   
     481;   437.0937;          877   
     482;   437.9690;          893   
     483;   438.8442;          827   
     484;   439.7195;          897   
     485;   440.5948;          826   
     486;   441.4701;          899   
     487;   442.3453;         1035   
     488;   443.2206;         1243   
     489;   444.0959;         1172   
     490;   444.9712;          946   
     491;   445.8464;          905   
     492;   446.7217;          955   
     493;   447.5970;          875   
     494;   448.4723;          899   
     495;   449.3475;          957   
     496;   450.2228;          955   
     497;   451.0981;          921   
     498;   451.9734;          946   
     499;   452.8486;          920   
     500;   453.7239;          927   
     501;   454.5992;          924   
     502;   455.4745;          975   
     503;   456.3497;          915   
     504;   457.2250;         1014   
     505;   458.1003;          931   
     506;   458.9756;          943   
     507;   459.8508;          921   
     508;   460.7261;          934   
     509;   461.6014;          987   
     510;   462.4767;          936   
     511;   463.3519;         1024   
     512;   464.2272;          954   
     513;   465.1025;         1007   
     514;   465.9778;          992   
     515;   466.8530;          938   
     516;   467.7283;          996   
     517;   468.6036;         1002   
     518;   469.4789;          990   
     519;   470.3541;         1013   
     520;   471.2294;         1009   
     521;   472.1047;          959   
     522;   472.9800;          894   
     523;   473.8552;          962   
     524;   474.7305;          931   
     525;   475.6058;          885   
     526;   476.4811;          856   
     527;   477.3563;          751   
     528;   478.2316;          770   
     529;   479.1069;          720   
     530;   479.9822;          656   
     531;   480.8574;          694   
     532;   481.7327;          598   
     533;   482.6080;          622   
     534;   483.4833;          621   
     535;   484.3585;          586   
     536;   485.2338;          591   
     537;   486.1091;          635   
     538;   486.9844;          586   
     539;   487.8596;          630   
     540;   488.7349;          542   
     541;   489.6102;          575   
     542;   490.4855;          555   
     543;   491.3607;          541   
     544;   492.2360;          561   
     545;   493.1113;          521   
     546;   493.9866;          578   
     547;   494.8618;          494   
     548;   495.7371;          564   
     549;   496.6124;          483   
     550;   497.4877;          541   
     551;   498.3629;          488   
     552;   499.2382;          473   
     553;   500.1135;          468   
     554;   500.9888;          499   
     555;   501.8640;          516   
     556;   502.7393;          472   
     557;   503.6146;          470   
     558;   504.4899;          479   
     559;   505.3651;          438   
     560;   506.2404;          458   
     561;   507.1157;          425   
     562;   507.9910;          454   
     563;   508.8662;          485   
     564;   509.7415;          465   
     565;   510.6168;          487   
     566;   511.4921;          454   
     567;   512.3673;          420   
     568;   513.2426;          408   
     569;   514.1179;          436   
     570;   514.9932;          401   
     571;   515.8684;          412   
     572;   516.7437;          424   
     573;   517.6190;          401   
     574;   518.4943;          400   
     575;   519.3695;          417   
     576;   520.2448;          382   
     577;   521.1201;          397   
     578;   521.9954;          375   
     579;   522.8706;          368   
     580;   523.7459;          377   
     581;   524.6212;          390   
     582;   525.4965;          345   
     583;   526.3717;          371   
     584;   527.2470;          351   
     585;   528.1223;          338   
     586;   528.9976;          329   
     587;   529.8728;          338   
     588;   530.7481;          323   
     589;   531.6234;          322   
     590;   532.4987;          310   
     591;   533.3739;          347   
     592;   534.2492;          299   
     593;   535.1245;          316   
     594;   535.9998;          304   
     595;   536.8750;          323   
     596;   537.7503;          310   
     597;   538.6256;          314   
     598;   539.5009;          270   
     599;   540.3761;          311   
     600;   541.2514;          279   
     601;   542.1267;          281   
     602;   543.0020;          260   
     603;   543.8772;          292   
     604;   544.7525;          298   
     605;   545.6278;          254   
     606;   546.5031;          278   
     607;   547.3783;          254   
     608;   548.2536;          271   
     609;   549.1289;          294   
     610;   550.0042;          263   
     611;   550.8794;          246   
     612;   551.7547;          253   
     613;   552.6300;          251   
     614;   553.5053;          246   
     615;   554.3805;          237   
     616;   555.2558;          247   
     617;   556.1311;          225   
     618;   557.0064;          242   
     619;   557.8816;          230   
     620;   558.7569;          252   
     621;   559.6322;          234   
     622;   560.5075;          240   
     623;   561.3827;          242   
     624;   562.2580;          248   
     625;   563.1333;          288   
     626;   564.0086;          239   
     627;   564.8838;          263   
     628;   565.7591;          231   
     629;   566.6344;          237   
     630;   567.5097;          211   
     631;   568.3849;          193   
     632;   569.2602;          215   
     633;   570.1355;          225   
     634;   571.0108;          209   
     635;   571.8860;          204   
     636;   572.7613;          180   
     637;   573.6366;          221   
     638;   574.5119;          200   
     639;   575.3871;          178   
     640;   576.2624;          200   
     641;   577.1377;          192   
     642;   578.0130;          211   
     643;   578.8882;          194   
     644;   579.7635;          196   
     645;   580.6388;          228   
     646;   581.5141;          234   
     647;   582.3893;          246   
     648;   583.2646;          226   
     649;   584.1399;          243   
     650;   585.0152;          264   
     651;   585.8904;          216   
     652;   586.7657;          225   
     653;   587.6410;          170   
     654;   588.5163;          180   
     655;   589.3915;          192   
     656;   590.2668;          182   
     657;   591.1421;          193   
     658;   592.0174;          202   
     659;   592.8926;          208   
     660;   593.7679;          209   
     661;   594.6432;          188   
     662;   595.5185;          196   
     663;   596.3937;          206   
     664;   597.2690;          181   
     665;   598.1443;          182   
     666;   599.0196;          153   
     667;   599.8948;          185   
     668;   600.7701;          178   
     669;   601.6454;          192   
     670;   602.5207;          132   
     671;   603.3959;          173   
     672;   604.2712;          157   
     673;   605.1465;          188   
     674;   606.0218;          175   
     675;   606.8970;          225   
     676;   607.7723;          221   
     677;   608.6476;          193   
     678;   609.5229;          203   
     679;   610.3981;          172   
     680;   611.2734;          170   
     681;   612.1487;          158   
     682;   613.0240;          165   
     683;   613.8992;          173   
     684;   614.7745;          157   
     685;   615.6498;          167   
     686;   616.5251;          180   
     687;   617.4003;          164   
     688;   618.2756;          170   
     689;   619.1509;          172   
     690;   620.0262;          158   
     691;   620.9014;          153   
     692;   621.7767;          158   
     693;   622.6520;          165   
     694;   623.5273;          172   
     695;   624.4025;          157   
     696;   625.2778;          170   
     697;   626.1531;          146   
     698;   627.0284;          174   
     699;   627.9036;          150   
     700;   628.7789;          154   
     701;   629.6542;          153   
     702;   630.5295;          172   
     703;   631.4047;          157   
     704;   632.2800;          173   
     705;   633.1553;          161   
     706;   634.0306;          175   
     707;   634.9058;          162   
     708;   635.7811;          154   
     709;   636.6564;          164   
     710;   637.5317;          148   
     711;   638.4069;          139   
     712;   639.2822;          174   
     713;   640.1575;          156   
     714;   641.0328;          160   
     715;   641.9080;          145   
     716;   642.7833;          144   
     717;   643.6586;          174   
     718;   644.5339;          153   
     719;   645.4091;          163   
     720;   646.2844;          156   
     721;   647.1597;          151   
     722;   648.0350;          155   
     723;   648.9102;          156   
     724;   649.7855;          154   
     725;   650.6608;          158   
     726;   651.5361;          158   
     727;   652.4113;          164   
     728;   653.2866;          201   
     729;   654.1619;          157   
     730;   655.0372;          188   
     731;   655.9124;          183   
     732;   656.7877;          314   
     733;   657.6630;         1876   
     734;   658.5383;        14358   
     735;   659.4135;        43183   
     736;   660.2888;        44168   
     737;   661.1641;        14653   
     738;   662.0394;         1926   
     739;   662.9146;          570   
     740;   663.7899;          402   
     741;   664.6652;          319   
     742;   665.5405;          224   
     743;   666.4157;          204   
     744;   667.2910;          141   
     745;   668.1663;          151   
     746;   669.0416;          135   
     747;   669.9168;          149   
     748;   670.7921;          114   
     749;   671.6674;          114   
     750;   672.5427;          138   
     751;   673.4179;          137   
     752;   674.2932;          121   
     753;   675.1685;          134   
     754;   676.0438;          165   
     755;   676.9190;          154   
     756;   677.7943;          126   
     757;   678.6696;          119   
     758;   679.5449;          106   
     759;   680.4201;          111   
     760;   681.2954;           95   
     761;   682.1707;           95   
     762;   683.0460;          106   
     763;   683.9212;          105   
     764;   684.7965;          111   
     765;   685.6718;          146   
     766;   686.5471;          182   
     767;   687.4223;          164   
     768;   688.2976;          111   
     769;   689.1729;          123   
     770;   690.0482;          110   
     771;   690.9234;          104   
     772;   691.7987;          104   
     773;   692.6740;          121   
     774;   693.5493;           89   
     775;   694.4245;           99   
     776;   695.2998;           97   
     777;   696.1751;           89   
     778;   697.0504;           98   
     779;   697.9256;           99   
     780;   698.8009;          105   
     781;   699.6762;          112   
     782;   700.5515;          104   
     783;   701.4267;           90   
     784;   702.3020;          106   
     785;   703.1773;          109   
     786;   704.0526;           93   
     787;   704.9278;           92   
     788;   705.8031;           95   
     789;   706.6784;           86   
     790;   707.5537;          106   
     791;   708.4289;          111   
     792;   709.3042;           93   
     793;   710.1795;           91   
     794;   711.0548;           83   
     795;   711.9300;           89   
     796;   712.8053;           99   
     797;   713.6806;          106   
     798;   714.5559;          101   
     799;   715.4311;           95   
     800;   716.3064;          116   
     801;   717.1817;          132   
     802;   718.0570;          130   
     803;   718.9322;           93   
     804;   719.8075;          106   
     805;   720.6828;           96   
     806;   721.5581;          109   
     807;   722.4333;          104   
     808;   723.3086;          102   
     809;   724.1839;          118   
     810;   725.0592;          123   
     811;   725.9344;           90   
     812;   726.8097;           91   
     813;   727.6850;           82   
     814;   728.5603;           93   
     815;   729.4355;          115   
     816;   730.3108;           85   
     817;   731.1861;           95   
     818;   732.0614;          100   
     819;   732.9366;           99   
     820;   733.8119;          103   
     821;   734.6872;           89   
     822;   735.5625;           92   
     823;   736.4377;           96   
     824;   737.3130;           85   
     825;   738.1883;           87   
     826;   739.0636;           84   
     827;   739.9388;          103   
     828;   740.8141;           93   
     829;   741.6894;           79   
     830;   742.5647;           96   
     831;   743.4399;           92   
     832;   744.3152;          115   
     833;   745.1905;          103   
     834;   746.0658;           75   
     835;   746.9410;          109   
     836;   747.8163;          100   
     837;   748.6916;           74   
     838;   749.5669;           86   
     839;   750.4421;           86   
     840;   751.3174;           97   
     841;   752.1927;           96   
     842;   753.0680;          120   
     843;   753.9432;           72   
     844;   754.8185;          100   
     845;   755.6938;           82   
     846;   756.5691;           92   
     847;   757.4443;           89   
     848;   758.3196;           89   
     849;   759.1949;           83   
     850;   760.0702;           79   
     851;   760.9454;           87   
     852;   761.8207;          112   
     853;   762.6960;          116   
     854;   763.5713;          102   
     855;   764.4465;           86   
     856;   765.3218;          105   
     857;   766.1971;           77   
     858;   767.0724;           85   
     859;   767.9476;           69   
     860;   768.8229;           82   
     861;   769.6982;           80   
     862;   770.5735;           76   
     863;   771.4487;           77   
     864;   772.3240;           83   
     865;   773.1993;           85   
     866;   774.0746;          126   
     867;   774.9498;          307   
     868;   775.8251;          801   
     869;   776.7004;          938   
     870;   777.5757;          418   
     871;   778.4509;          140   
     872;   779.3262;           80   
     873;   780.2015;           71   
     874;   781.0768;           71   
     875;   781.9520;           78   
     876;   782.8273;           71   
     877;   783.7026;           78   
     878;   784.5779;           84   
     879;   785.4531;           73   
     880;   786.3284;           85   
     881;   787.2037;           74   
     882;   788.0790;           80   
     883;   788.9542;           77   
     884;   789.8295;           65   
     885;   790.7048;           84   
     886;   791.5801;           73   
     887;   792.4553;           73   
     888;   793.3306;           71   
     889;   794.2059;           79   
     890;   795.0812;           85   
     891;   795.9564;           60   
     892;   796.8317;           77   
     893;   797.7070;           74   
     894;   798.5823;           65   
     895;   799.4575;           63   
     896;   800.3328;           79   
     897;   801.2081;           91   
     898;   802.0834;           67   
     899;   802.9586;           67   
     900;   803.8339;           72   
     901;   804.7092;           79   
     902;   805.5845;           48   
     903;   806.4597;           84   
     904;   807.3350;           94   
     905;   808.2103;           85   
     906;   809.0856;           82   
     907;   809.9608;           79   
     908;   810.8361;           64   
     909;   811.7114;           82   
     910;   812.5867;           73   
     911;   813.4619;           71   
     912;   814.3372;           63   
     913;   815.2125;           80   
     914;   816.0878;           88   
     915;   816.9631;           59   
     916;   817.8383;           80   
     917;   818.7136;           70   
     918;   819.5889;           60   
     919;   820.4642;           77   
     920;   821.3394;           65   
     921;   822.2147;           74   
     922;   823.0900;           68   
     923;   823.9653;           72   
     924;   824.8405;           82   
     925;   825.7158;           74   
     926;   826.5911;           72   
     927;   827.4664;           64   
     928;   828.3416;           68   
     929;   829.2169;           72   
     930;   830.0922;           77   
     931;   830.9675;           62   
     932;   831.8427;           80   
     933;   832.7180;           71   
     934;   833.5933;           85   
     935;   834.4686;           68   
     936;   835.3438;           77   
     937;   836.2191;           73   
     938;   837.0944;           69   
     939;   837.9697;           79   
     940;   838.8449;           71   
     941;   839.7202;           64   
     942;   840.5955;           70   
     943;   841.4708;           75   
     944;   842.3460;           77   
     945;   843.2213;           71   
     946;   844.0966;           65   
     947;   844.9719;           63   
     948;   845.8471;           69   
     949;   846.7224;           67   
     950;   847.5977;           68   
     951;   848.4730;           64   
     952;   849.3482;           73   
     953;   850.2235;           69   
     954;   851.0988;           71   
     955;   851.9741;           58   
     956;   852.8493;           60   
     957;   853.7246;           71   
     958;   854.5999;           76   
     959;   855.4752;           75   
     960;   856.3504;           68   
     961;   857.2257;           70   
     962;   858.1010;           72   
     963;   858.9763;           70   
     964;   859.8515;           67   
     965;   860.7268;           79   
     966;   861.6021;           73   
     967;   862.4774;          119   
     968;   863.3526;          255   
     969;   864.2279;          345   
     970;   865.1032;          236   
     971;   865.9785;           85   
     972;   866.8537;           75   
     973;   867.7290;           78   
     974;   868.6043;           70   
     975;   869.4796;           78   
     976;   870.3548;           69   
     977;   871.2301;           69   
     978;   872.1054;           65   
     979;   872.9807;           67   
     980;   873.8559;           64   
     981;   874.7312;           64   
     982;   875.6065;           62   
     983;   876.4818;           74   
     984;   877.3570;           60   
     985;   878.2323;           55   
     986;   879.1076;           62   
     987;   879.9829;           59   
     988;   880.8581;           55   
     989;   881.7334;           58   
     990;   882.6087;           67   
     991;   883.4840;           56   
     992;   884.3592;           63   
     993;   885.2345;           50   
     994;   886.1098;           62   
     995;   886.9851;           73   
     996;   887.8603;           77   
     997;   888.7356;           57   
     998;   889.6109;           54   
     999;   890.4862;           57   
    1000;   891.3614;           70   
    1001;   892.2367;           55   
    1002;   893.1120;           56   
    1003;   893.9873;           65   
    1004;   894.8625;           62   
    1005;   895.7378;           45   
    1006;   896.6131;           55   
    1007;   897.4884;           57   
    1008;   898.3636;           63   
    1009;   899.2389;           62   
    1010;   900.1142;           42   
    1011;   900.9895;           62   
    1012;   901.8647;           56   
    1013;   902.7400;           54   
    1014;   903.6153;           43   
    1015;   904.4906;           58   
    1016;   905.3658;           57   
    1017;   906.2411;           65   
    1018;   907.1164;           76   
    1019;   907.9917;           89   
    1020;   908.8669;           83   
    1021;   909.7422;           46   
    1022;   910.6175;           55   
    1023;   911.4928;           45   
    1024;   912.3680;           42   
    1025;   913.2433;           53   
    1026;   914.1186;           59   
    1027;   914.9939;           76   
    1028;   915.8691;           79   
    1029;   916.7444;           74   
    1030;   917.6197;           53   
    1031;   918.4950;           38   
    1032;   919.3702;           45   
    1033;   920.2455;           36   
    1034;   921.1208;           67   
    1035;   921.9961;           71   
    1036;   922.8713;           61   
    1037;   923.7466;           55   
    1038;   924.6219;           44   
    1039;   925.4972;           64   
    1040;   926.3724;           46   
    1041;   927.2477;           51   
    1042;   928.1230;           39   
    1043;   928.9983;           43   
    1044;   929.8735;           49   
    1045;   930.7488;           51   
    1046;   931.6241;           45   
    1047;   932.4994;           45   
    1048;   933.3746;           43   
    1049;   934.2499;           50   
    1050;   935.1252;           31   
    1051;   936.0005;           55   
    1052;   936.8757;           40   
    1053;   937.7510;           43   
    1054;   938.6263;           44   
    1055;   939.5016;           43   
    1056;   940.3768;           41   
    1057;   941.2521;           49   
    1058;   942.1274;           43   
    1059;   943.0027;           47   
    1060;   943.8779;           41   
    1061;   944.7532;           42   
    1062;   945.6285;           56   
    1063;   946.5038;           42   
    1064;   947.3790;           45   
    1065;   948.2543;           48   
    1066;   949.1296;           49   
    1067;   950.0049;           45   
    1068;   950.8801;           44   
    1069;   951.7554;           35   
    1070;   952.6307;           45   
    1071;   953.5060;           37   
    1072;   954.3812;           41   
    1073;   955.2565;           38   
    1074;   956.1318;           47   
    1075;   957.0071;           33   
    1076;   957.8823;           97   
    1077;   958.7576;          273   
    1078;   959.6329;          715   
    1079;   960.5082;          872   
    1080;   961.3834;          417   
    1081;   962.2587;          119   
    1082;   963.1340;           58   
    1083;   964.0093;           63   
    1084;   964.8845;           58   
    1085;   965.7598;           61   
    1086;   966.6351;           35   
    1087;   967.5104;           35   
    1088;   968.3856;           37   
    1089;   969.2609;           40   
    1090;   970.1362;           46   
    1091;   971.0115;           46   
    1092;   971.8867;           28   
    1093;   972.7620;           36   
    1094;   973.6373;           33   
    1095;   974.5126;           31   
    1096;   975.3878;           37   
    1097;   976.2631;           47   
    1098;   977.1384;           46   
    1099;   978.0137;           34   
    1100;   978.8889;           32   
    1101;   979.7642;           30   
    1102;   980.6395;           29   
    1103;   981.5148;           25   
    1104;   982.3900;           41   
    1105;   983.2653;           38   
    1106;   984.1406;           35   
    1107;   985.0159;           33   
    1108;   985.8911;           38   
    1109;   986.7664;           27   
    1110;   987.6417;           36   
    1111;   988.5170;           43   
    1112;   989.3922;           32   
    1113;   990.2675;           37   
    1114;   991.1428;           43   
    1115;   992.0181;           38   
    1116;   992.8933;           47   
    1117;   993.7686;           39   
    1118;   994.6439;           26   
    1119;   995.5192;           40   
    1120;   996.3944;           29   
    1121;   997.2697;           45   
    1122;   998.1450;           25   
    1123;   999.0203;           28   
    1124;   999.8955;           50   
    1125;  1000.7708;           80   
    1126;  1001.6461;           61   
    1127;  1002.5214;           42   
    1128;  1003.3966;           44   
    1129;  1004.2719;           41   
    1130;  1005.1472;           48   
    1131;  1006.0225;           32   
    1132;  1006.8977;           42   
    1133;  1007.7730;           34   
    1134;  1008.6483;           31   
    1135;  1009.5236;           47   
    1136;  1010.3988;           35   
    1137;  1011.2741;           32   
    1138;  1012.1494;           31   
    1139;  1013.0247;           29   
    1140;  1013.8999;           33   
    1141;  1014.7752;           36   
    1142;  1015.6505;           24   
    1143;  1016.5258;           38   
    1144;  1017.4010;           33   
    1145;  1018.2763;           24   
    1146;  1019.1516;           28   
    1147;  1020.0269;           41   
    1148;  1020.9021;           36   
    1149;  1021.7774;           33   
    1150;  1022.6527;           31   
    1151;  1023.5280;           34   
    1152;  1024.4032;           28   
    1153;  1025.2785;           28   
    1154;  1026.1538;           24   
    1155;  1027.0291;           34   
    1156;  1027.9043;           36   
    1157;  1028.7796;           27   
    1158;  1029.6549;           29   
    1159;  1030.5302;           44   
    1160;  1031.4054;           22   
    1161;  1032.2807;           25   
    1162;  1033.1560;           31   
    1163;  1034.0313;           33   
    1164;  1034.9065;           25   
    1165;  1035.7818;           33   
    1166;  1036.6571;           24   
    1167;  1037.5324;           25   
    1168;  1038.4076;           22   
    1169;  1039.2829;           40   
    1170;  1040.1582;           35   
    1171;  1041.0335;           27   
    1172;  1041.9087;           39   
    1173;  1042.7840;           35   
    1174;  1043.6593;           40   
    1175;  1044.5346;           39   
    1176;  1045.4098;           28   
    1177;  1046.2851;           28   
    1178;  1047.1604;           26   
    1179;  1048.0357;           28   
    1180;  1048.9109;           26   
    1181;  1049.7862;           28   
    1182;  1050.6615;           30   
    1183;  1051.5368;           32   
    1184;  1052.4120;           32   
    1185;  1053.2873;           36   
    1186;  1054.1626;           25   
    1187;  1055.0379;           32   
    1188;  1055.9131;           38   
    1189;  1056.7884;           36   
    1190;  1057.6637;           32   
    1191;  1058.5390;           33   
    1192;  1059.4142;           31   
    1193;  1060.2895;           37   
    1194;  1061.1648;           24   
    1195;  1062.0401;           38   
    1196;  1062.9153;           49   
    1197;  1063.7906;           36   
    1198;  1064.6659;           34   
    1199;  1065.5412;           34   
    1200;  1066.4164;           31   
    1201;  1067.2917;           25   
    1202;  1068.1670;           25   
    1203;  1069.0423;           40   
    1204;  1069.9175;           37   
    1205;  1070.7928;           24   
    1206;  1071.6681;           33   
    1207;  1072.5434;           27   
    1208;  1073.4186;           32   
    1209;  1074.2939;           39   
    1210;  1075.1692;           36   
    1211;  1076.0445;           40   
    1212;  1076.9197;           32   
    1213;  1077.7950;           28   
    1214;  1078.6703;           47   
    1215;  1079.5456;          170   
    1216;  1080.4208;          410   
    1217;  1081.2961;          527   
    1218;  1082.1714;          323   
    1219;  1083.0467;           88   
    1220;  1083.9219;           88   
    1221;  1084.7972;          118   
    1222;  1085.6725;           97   
    1223;  1086.5478;           38   
    1224;  1087.4230;           38   
    1225;  1088.2983;           28   
    1226;  1089.1736;           31   
    1227;  1090.0489;           38   
    1228;  1090.9241;           25   
    1229;  1091.7994;           32   
    1230;  1092.6747;           31   
    1231;  1093.5500;           40   
    1232;  1094.4252;           38   
    1233;  1095.3005;           32   
    1234;  1096.1758;           35   
    1235;  1097.0511;           30   
    1236;  1097.9263;           29   
    1237;  1098.8016;           29   
    1238;  1099.6769;           30   
    1239;  1100.5522;           27   
    1240;  1101.4274;           19   
    1241;  1102.3027;           25   
    1242;  1103.1780;           46   
    1243;  1104.0533;           44   
    1244;  1104.9285;           74   
    1245;  1105.8038;          284   
    1246;  1106.6791;          589   
    1247;  1107.5544;          616   
    1248;  1108.4296;          317   
    1249;  1109.3049;           96   
    1250;  1110.1802;           47   
    1251;  1111.0555;           35   
    1252;  1111.9307;           30   
    1253;  1112.8060;           39   
    1254;  1113.6813;           33   
    1255;  1114.5566;           29   
    1256;  1115.4318;           35   
    1257;  1116.3071;           32   
    1258;  1117.1824;           37   
    1259;  1118.0577;           27   
    1260;  1118.9329;           22   
    1261;  1119.8082;           23   
    1262;  1120.6835;           46   
    1263;  1121.5588;           25   
    1264;  1122.4340;           29   
    1265;  1123.3093;           30   
    1266;  1124.1846;           26   
    1267;  1125.0599;           30   
    1268;  1125.9351;           32   
    1269;  1126.8104;           33   
    1270;  1127.6857;           27   
    1271;  1128.5610;           29   
    1272;  1129.4362;           31   
    1273;  1130.3115;           20   
    1274;  1131.1868;           29   
    1275;  1132.0621;           30   
    1276;  1132.9373;           30   
    1277;  1133.8126;           24   
    1278;  1134.6879;           35   
    1279;  1135.5632;           36   
    1280;  1136.4384;           29   
    1281;  1137.3137;           24   
    1282;  1138.1890;           38   
    1283;  1139.0643;           23   
    1284;  1139.9395;           40   
    1285;  1140.8148;           32   
    1286;  1141.6901;           32   
    1287;  1142.5654;           30   
    1288;  1143.4406;           32   
    1289;  1144.3159;           28   
    1290;  1145.1912;           26   
    1291;  1146.0665;           26   
    1292;  1146.9417;           28   
    1293;  1147.8170;           36   
    1294;  1148.6923;           40   
    1295;  1149.5676;           33   
    1296;  1150.4428;           39   
    1297;  1151.3181;           29   
    1298;  1152.1934;           29   
    1299;  1153.0687;           49   
    1300;  1153.9439;           41   
    1301;  1154.8192;           32   
    1302;  1155.6945;           23   
    1303;  1156.5698;           32   
    1304;  1157.4450;           30   
    1305;  1158.3203;           30   
    1306;  1159.1956;           41   
    1307;  1160.0709;           29   
    1308;  1160.9461;           30   
    1309;  1161.8214;           42   
    1310;  1162.6967;           28   
    1311;  1163.5720;           29   
    1312;  1164.4472;           43   
    1313;  1165.3225;           37   
    1314;  1166.1978;           29   
    1315;  1167.0731;           32   
    1316;  1167.9483;           28   
    1317;  1168.8236;           37   
    1318;  1169.6989;           30   
    1319;  1170.5742;           20   
    1320;  1171.4494;           35   
    1321;  1172.3247;           29   
    1322;  1173.2000;           27   
    1323;  1174.0753;           32   
    1324;  1174.9505;           36   
    1325;  1175.8258;           21   
    1326;  1176.7011;           38   
    1327;  1177.5764;           29   
    1328;  1178.4516;           28   
    1329;  1179.3269;           30   
    1330;  1180.2022;           31   
    1331;  1181.0775;           26   
    1332;  1181.9527;           25   
    1333;  1182.8280;           28   
    1334;  1183.7033;           28   
    1335;  1184.5786;           22   
    1336;  1185.4538;           32   
    1337;  1186.3291;           30   
    1338;  1187.2044;           27   
    1339;  1188.0797;           32   
    1340;  1188.9549;           33   
    1341;  1189.8302;           24   
    1342;  1190.7055;           25   
    1343;  1191.5808;           27   
    1344;  1192.4560;           22   
    1345;  1193.3313;           27   
    1346;  1194.2066;           26   
    1347;  1195.0819;           17   
    1348;  1195.9571;           16   
    1349;  1196.8324;           24   
    1350;  1197.7077;           24   
    1351;  1198.5830;           24   
    1352;  1199.4582;           21   
    1353;  1200.3335;           31   
    1354;  1201.2088;           26   
    1355;  1202.0841;           22   
    1356;  1202.9593;           28   
    1357;  1203.8346;           26   
    1358;  1204.7099;           27   
    1359;  1205.5852;           31   
    1360;  1206.4604;           65   
    1361;  1207.3357;           70   
    1362;  1208.2110;           50   
    1363;  1209.0863;           34   
    1364;  1209.9615;           27   
    1365;  1210.8368;           23   
    1366;  1211.7121;           20   
    1367;  1212.5874;           21   
    1368;  1213.4626;           22   
    1369;  1214.3379;           12   
    1370;  1215.2132;           25   
    1371;  1216.0885;           23   
    1372;  1216.9637;           16   
    1373;  1217.8390;           21   
    1374;  1218.7143;            8   
    1375;  1219.5896;           29   
    1376;  1220.4648;           24   
    1377;  1221.3401;           17   
    1378;  1222.2154;           17   
    1379;  1223.0907;           19   
    1380;  1223.9659;           20   
    1381;  1224.8412;           15   
    1382;  1225.7165;           26   
    1383;  1226.5918;           19   
    1384;  1227.4670;           21   
    1385;  1228.3423;           20   
    1386;  1229.2176;           19   
    1387;  1230.0929;           22   
    1388;  1230.9681;           18   
    1389;  1231.8434;           30   
    1390;  1232.7187;           21   
    1391;  1233.5940;           19   
    1392;  1234.4692;           17   
    1393;  1235.3445;           22   
    1394;  1236.2198;           17   
    1395;  1237.0951;           17   
    1396;  1237.9703;           20   
    1397;  1238.8456;           16   
    1398;  1239.7209;           10   
    1399;  1240.5962;           19   
    1400;  1241.4714;           15   
    1401;  1242.3467;           17   
    1402;  1243.2220;           42   
    1403;  1244.0973;           21   
    1404;  1244.9725;           30   
    1405;  1245.8478;           17   
    1406;  1246.7231;           20   
    1407;  1247.5984;           23   
    1408;  1248.4736;           21   
    1409;  1249.3489;           19   
    1410;  1250.2242;           19   
    1411;  1251.0995;           17   
    1412;  1251.9747;           15   
    1413;  1252.8500;           17   
    1414;  1253.7253;           19   
    1415;  1254.6006;           10   
    1416;  1255.4758;           13   
    1417;  1256.3511;           13   
    1418;  1257.2264;           20   
    1419;  1258.1017;           17   
    1420;  1258.9769;           14   
    1421;  1259.8522;           13   
    1422;  1260.7275;           17   
    1423;  1261.6028;           22   
    1424;  1262.4780;           10   
    1425;  1263.3533;           22   
    1426;  1264.2286;           13   
    1427;  1265.1039;           14   
    1428;  1265.9791;           19   
    1429;  1266.8544;           20   
    1430;  1267.7297;           21   
    1431;  1268.6050;           24   
    1432;  1269.4802;           18   
    1433;  1270.3555;           17   
    1434;  1271.2308;            9   
    1435;  1272.1061;           17   
    1436;  1272.9813;            8   
    1437;  1273.8566;           11   
    1438;  1274.7319;           16   
    1439;  1275.6072;           10   
    1440;  1276.4824;           18   
    1441;  1277.3577;            9   
    1442;  1278.2330;           15   
    1443;  1279.1083;           16   
    1444;  1279.9835;           13   
    1445;  1280.8588;           16   
    1446;  1281.7341;           16   
    1447;  1282.6094;            9   
    1448;  1283.4846;           10   
    1449;  1284.3599;           21   
    1450;  1285.2352;           10   
    1451;  1286.1105;           18   
    1452;  1286.9857;           13   
    1453;  1287.8610;           22   
    1454;  1288.7363;           14   
    1455;  1289.6116;           10   
    1456;  1290.4868;           12   
    1457;  1291.3621;           29   
    1458;  1292.2374;           70   
    1459;  1293.1127;           81   
    1460;  1293.9879;           47   
    1461;  1294.8632;           22   
    1462;  1295.7385;            9   
    1463;  1296.6138;           20   
    1464;  1297.4890;           23   
    1465;  1298.3643;           16   
    1466;  1299.2396;           15   
    1467;  1300.1149;            8   
    1468;  1300.9901;           16   
    1469;  1301.8654;           11   
    1470;  1302.7407;           17   
    1471;  1303.6160;           11   
    1472;  1304.4912;           13   
    1473;  1305.3665;           13   
    1474;  1306.2418;           16   
    1475;  1307.1171;            2   
    1476;  1307.9923;           13   
    1477;  1308.8676;           16   
    1478;  1309.7429;           10   
    1479;  1310.6182;           13   
    1480;  1311.4934;           19   
    1481;  1312.3687;           18   
    1482;  1313.2440;           20   
    1483;  1314.1193;            8   
    1484;  1314.9945;           27   
    1485;  1315.8698;           23   
    1486;  1316.7451;           20   
    1487;  1317.6204;           12   
    1488;  1318.4956;           14   
    1489;  1319.3709;            4   
    1490;  1320.2462;           12   
    1491;  1321.1215;            9   
    1492;  1321.9967;            6   
    1493;  1322.8720;            7   
    1494;  1323.7473;            8   
    1495;  1324.6226;            7   
    1496;  1325.4978;            9   
    1497;  1326.3731;           11   
    1498;  1327.2484;            4   
    1499;  1328.1237;           13   
    1500;  1328.9989;            7   
    1501;  1329.8742;            4   
    1502;  1330.7495;           10   
    1503;  1331.6248;            5   
    1504;  1332.5000;            5   
    1505;  1333.3753;            8   
    1506;  1334.2506;           10   
    1507;  1335.1259;            9   
    1508;  1336.0011;            6   
    1509;  1336.8764;           13   
    1510;  1337.7517;            8   
    1511;  1338.6270;            5   
    1512;  1339.5022;            4   
    1513;  1340.3775;            7   
    1514;  1341.2528;            5   
    1515;  1342.1281;           14   
    1516;  1343.0033;           10   
    1517;  1343.8786;           19   
    1518;  1344.7539;            7   
    1519;  1345.6292;            2   
    1520;  1346.5044;            4   
    1521;  1347.3797;           12   
    1522;  1348.2550;            4   
    1523;  1349.1303;            5   
    1524;  1350.0055;            9   
    1525;  1350.8808;            3   
    1526;  1351.7561;            7   
    1527;  1352.6314;            4   
    1528;  1353.5066;            9   
    1529;  1354.3819;            6   
    1530;  1355.2572;            7   
    1531;  1356.1325;            4   
    1532;  1357.0077;            5   
    1533;  1357.8830;            8   
    1534;  1358.7583;            8   
    1535;  1359.6336;            8   
    1536;  1360.5088;            9   
    1537;  1361.3841;            6   
    1538;  1362.2594;            8   
    1539;  1363.1347;            6   
    1540;  1364.0099;            6   
    1541;  1364.8852;            9   
    1542;  1365.7605;            7   
    1543;  1366.6358;            5   
    1544;  1367.5110;            3   
    1545;  1368.3863;            3   
    1546;  1369.2616;            6   
    1547;  1370.1369;            9   
    1548;  1371.0121;            8   
    1549;  1371.8874;           10   
    1550;  1372.7627;            8   
    1551;  1373.6380;            4   
    1552;  1374.5132;            4   
    1553;  1375.3885;            9   
    1554;  1376.2638;            7   
    1555;  1377.1391;            7   
    1556;  1378.0143;            3   
    1557;  1378.8896;            9   
    1558;  1379.7649;           10   
    1559;  1380.6402;            3   
    1560;  1381.5154;            9   
    1561;  1382.3907;            4   
    1562;  1383.2660;            6   
    1563;  1384.1413;            9   
    1564;  1385.0165;            3   
    1565;  1385.8918;            5   
    1566;  1386.7671;            7   
    1567;  1387.6424;            5   
    1568;  1388.5176;            4   
    1569;  1389.3929;            8   
    1570;  1390.2682;            5   
    1571;  1391.1435;            4   
    1572;  1392.0187;            5   
    1573;  1392.8940;            5   
    1574;  1393.7693;            5   
    1575;  1394.6446;            5   
    1576;  1395.5198;            8   
    1577;  1396.3951;           11   
    1578;  1397.2704;           10   
    1579;  1398.1457;           43   
    1580;  1399.0209;          200   
    1581;  1399.8962;          510   
    1582;  1400.7715;          792   
    1583;  1401.6468;          601   
    1584;  1402.5220;          224   
    1585;  1403.3973;           37   
    1586;  1404.2726;           22   
    1587;  1405.1479;            9   
    1588;  1406.0231;           13   
    1589;  1406.8984;            5   
    1590;  1407.7737;            8   
    1591;  1408.6490;            5   
    1592;  1409.5242;            6   
    1593;  1410.3995;            5   
    1594;  1411.2748;            2   
    1595;  1412.1501;            7   
    1596;  1413.0253;           10   
    1597;  1413.9006;            4   
    1598;  1414.7759;            6   
    1599;  1415.6512;            5   
    1600;  1416.5264;            6   
    1601;  1417.4017;            0   
    1602;  1418.2770;            8   
    1603;  1419.1523;           10   
    1604;  1420.0275;            4   
    1605;  1420.9028;            4   
    1606;  1421.7781;            5   
    1607;  1422.6534;            6   
    1608;  1423.5286;            3   
    1609;  1424.4039;            3   
    1610;  1425.2792;            4   
    1611;  1426.1545;            2   
    1612;  1427.0297;            1   
    1613;  1427.9050;            5   
    1614;  1428.7803;            5   
    1615;  1429.6556;            7   
    1616;  1430.5308;            9   
    1617;  1431.4061;           10   
    1618;  1432.2814;            5   
    1619;  1433.1567;            2   
    1620;  1434.0319;            6   
    1621;  1434.9072;            6   
    1622;  1435.7825;            2   
    1623;  1436.6578;            4   
    1624;  1437.5330;            4   
    1625;  1438.4083;            8   
    1626;  1439.2836;            2   
    1627;  1440.1589;            7   
    1628;  1441.0341;            6   
    1629;  1441.9094;            2   
    1630;  1442.7847;            4   
    1631;  1443.6600;            6   
    1632;  1444.5352;            1   
    1633;  1445.4105;            4   
    1634;  1446.2858;            4   
    1635;  1447.1611;           12   
    1636;  1448.0363;            7   
    1637;  1448.9116;           16   
    1638;  1449.7869;           22   
    1639;  1450.6622;           47   
    1640;  1451.5374;           85   
    1641;  1452.4127;          188   
    1642;  1453.2880;          256   
    1643;  1454.1633;          190   
    1644;  1455.0385;           52   
    1645;  1455.9138;           13   
    1646;  1456.7891;            5   
    1647;  1457.6644;            6   
    1648;  1458.5396;            3   
    1649;  1459.4149;            5   
    1650;  1460.2902;            3   
    1651;  1461.1655;            2   
    1652;  1462.0407;            3   
    1653;  1462.9160;            3   
    1654;  1463.7913;            0   
    1655;  1464.6666;            5   
    1656;  1465.5418;            3   
    1657;  1466.4171;            6   
    1658;  1467.2924;            4   
    1659;  1468.1677;            8   
    1660;  1469.0429;            3   
    1661;  1469.9182;            5   
    1662;  1470.7935;            1   
    1663;  1471.6688;            3   
    1664;  1472.5440;            6   
    1665;  1473.4193;            3   
    1666;  1474.2946;            5   
    1667;  1475.1699;            3   
    1668;  1476.0451;            3   
    1669;  1476.9204;            2   
    1670;  1477.7957;            4   
    1671;  1478.6710;            0   
    1672;  1479.5462;            1   
    1673;  1480.4215;            2   
    1674;  1481.2968;            1   
    1675;  1482.1721;            4   
    1676;  1483.0473;            2   
    1677;  1483.9226;            3   
    1678;  1484.7979;            3   
    1679;  1485.6732;            2   
    1680;  1486.5484;            4   
    1681;  1487.4237;            2   
    1682;  1488.2990;            5   
    1683;  1489.1743;            6   
    1684;  1490.0495;            2   
    1685;  1490.9248;            2   
    1686;  1491.8001;            4   
    1687;  1492.6754;            7   
    1688;  1493.5506;            1   
    1689;  1494.4259;            2   
    1690;  1495.3012;            3   
    1691;  1496.1765;            3   
    1692;  1497.0517;            3   
    1693;  1497.9270;            5   
    1694;  1498.8023;            9   
    1695;  1499.6776;            5   
    1696;  1500.5528;            2   
    1697;  1501.4281;            8   
    1698;  1502.3034;            9   
    1699;  1503.1787;            3   
    1700;  1504.0539;            3   
    1701;  1504.9292;            1   
    1702;  1505.8045;            4   
    1703;  1506.6798;            1   
    1704;  1507.5550;            5   
    1705;  1508.4303;            7   
    1706;  1509.3056;            4   
    1707;  1510.1809;            3   
    1708;  1511.0561;            3   
    1709;  1511.9314;            2   
    1710;  1512.8067;            3   
    1711;  1513.6820;            7   
    1712;  1514.5572;            2   
    1713;  1515.4325;            3   
    1714;  1516.3078;            4   
    1715;  1517.1831;            4   
    1716;  1518.0583;            4   
    1717;  1518.9336;           17   
    1718;  1519.8089;           15   
    1719;  1520.6842;           10   
    1720;  1521.5594;            5   
    1721;  1522.4347;            0   
    1722;  1523.3100;            5   
    1723;  1524.1853;            5   
    1724;  1525.0605;            3   
    1725;  1525.9358;            2   
    1726;  1526.8111;            5   
    1727;  1527.6864;            4   
    1728;  1528.5616;            1   
    1729;  1529.4369;            1   
    1730;  1530.3122;            4   
    1731;  1531.1875;            4   
    1732;  1532.0627;            3   
    1733;  1532.9380;            3   
    1734;  1533.8133;            4   
    1735;  1534.6886;            4   
    1736;  1535.5638;            1   
    1737;  1536.4391;            2   
    1738;  1537.3144;            3   
    1739;  1538.1897;            3   
    1740;  1539.0649;            1   
    1741;  1539.9402;            3   
    1742;  1540.8155;            6   
    1743;  1541.6908;            4   
    1744;  1542.5660;            4   
    1745;  1543.4413;            0   
    1746;  1544.3166;            4   
    1747;  1545.1919;            1   
    1748;  1546.0671;            3   
    1749;  1546.9424;            4   
    1750;  1547.8177;            1   
    1751;  1548.6930;            1   
    1752;  1549.5682;            3   
    1753;  1550.4435;            2   
    1754;  1551.3188;            5   
    1755;  1552.1941;            2   
    1756;  1553.0693;            4   
    1757;  1553.9446;            3   
    1758;  1554.8199;            3   
    1759;  1555.6952;            3   
    1760;  1556.5704;            1   
    1761;  1557.4457;            1   
    1762;  1558.3210;            1   
    1763;  1559.1963;            1   
    1764;  1560.0715;            4   
    1765;  1560.9468;            4   
    1766;  1561.8221;            3   
    1767;  1562.6974;            1   
    1768;  1563.5726;            1   
    1769;  1564.4479;            6   
    1770;  1565.3232;            2   
    1771;  1566.1985;            2   
    1772;  1567.0737;            1   
    1773;  1567.9490;            5   
    1774;  1568.8243;            5   
    1775;  1569.6996;            1   
    1776;  1570.5748;            2   
    1777;  1571.4501;            1   
    1778;  1572.3254;            2   
    1779;  1573.2007;            6   
    1780;  1574.0759;            3   
    1781;  1574.9512;            3   
    1782;  1575.8265;            4   
    1783;  1576.7018;            3   
    1784;  1577.5770;            3   
    1785;  1578.4523;            8   
    1786;  1579.3276;            4   
    1787;  1580.2029;            3   
    1788;  1581.0781;            5   
    1789;  1581.9534;            6   
    1790;  1582.8287;            6   
    1791;  1583.7040;            7   
    1792;  1584.5792;            5   
    1793;  1585.4545;            3   
    1794;  1586.3298;            7   
    1795;  1587.2051;            3   
    1796;  1588.0803;            5   
    1797;  1588.9556;            2   
    1798;  1589.8309;            3   
    1799;  1590.7062;            3   
    1800;  1591.5814;            2   
    1801;  1592.4567;            1   
    1802;  1593.3320;            3   
    1803;  1594.2073;            2   
    1804;  1595.0825;            1   
    1805;  1595.9578;            1   
    1806;  1596.8331;            2   
    1807;  1597.7084;            4   
    1808;  1598.5836;            0   
    1809;  1599.4589;            4   
    1810;  1600.3342;            3   
    1811;  1601.2095;            3   
    1812;  1602.0847;            4   
    1813;  1602.9600;            2   
    1814;  1603.8353;            2   
    1815;  1604.7106;            1   
    1816;  1605.5858;            7   
    1817;  1606.4611;            1   
    1818;  1607.3364;            1   
    1819;  1608.2117;            1   
    1820;  1609.0869;            0   
    1821;  1609.9622;            2   
    1822;  1610.8375;            2   
    1823;  1611.7128;            2   
    1824;  1612.5880;            2   
    1825;  1613.4633;            2   
    1826;  1614.3386;            5   
    1827;  1615.2139;            6   
    1828;  1616.0891;            2   
    1829;  1616.9644;            1   
    1830;  1617.8397;            2   
    1831;  1618.7150;            3   
    1832;  1619.5902;            4   
    1833;  1620.4655;            1   
    1834;  1621.3408;            6   
    1835;  1622.2161;            7   
    1836;  1623.0913;            1   
    1837;  1623.9666;            4   
    1838;  1624.8419;            1   
    1839;  1625.7172;            6   
    1840;  1626.5924;            4   
    1841;  1627.4677;            2   
    1842;  1628.3430;            1   
    1843;  1629.2183;            6   
    1844;  1630.0935;            3   
    1845;  1630.9688;            1   
    1846;  1631.8441;            2   
    1847;  1632.7194;            1   
    1848;  1633.5946;            0   
    1849;  1634.4699;            2   
    1850;  1635.3452;            2   
    1851;  1636.2205;            1   
    1852;  1637.0957;            2   
    1853;  1637.9710;            2   
    1854;  1638.8463;            4   
    1855;  1639.7216;            1   
    1856;  1640.5968;            1   
    1857;  1641.4721;            1   
    1858;  1642.3474;            3   
    1859;  1643.2227;            1   
    1860;  1644.0979;            0   
    1861;  1644.9732;            2   
    1862;  1645.8485;            2   
    1863;  1646.7238;            1   
    1864;  1647.5990;            2   
    1865;  1648.4743;            1   
    1866;  1649.3496;            0   
    1867;  1650.2249;            3   
    1868;  1651.1001;            2   
    1869;  1651.9754;            4   
    1870;  1652.8507;            1   
    1871;  1653.7260;            3   
    1872;  1654.6012;            2   
    1873;  1655.4765;            1   
    1874;  1656.3518;            1   
    1875;  1657.2271;            0   
    1876;  1658.1023;            1   
    1877;  1658.9776;            1   
    1878;  1659.8529;            5   
    1879;  1660.7282;            1   
    1880;  1661.6034;            0   
    1881;  1662.4787;            2   
    1882;  1663.3540;            3   
    1883;  1664.2293;            1   
    1884;  1665.1045;            1   
    1885;  1665.9798;            3   
    1886;  1666.8551;            1   
    1887;  1667.7304;            1   
    1888;  1668.6056;            1   
    1889;  1669.4809;            0   
    1890;  1670.3562;            1   
    1891;  1671.2315;            1   
    1892;  1672.1067;            3   
    1893;  1672.9820;            1   
    1894;  1673.8573;            1   
    1895;  1674.7326;            0   
    1896;  1675.6078;            2   
    1897;  1676.4831;            2   
    1898;  1677.3584;            0   
    1899;  1678.2337;            0   
    1900;  1679.1089;            1   
    1901;  1679.9842;            1   
    1902;  1680.8595;            0   
    1903;  1681.7348;            3   
    1904;  1682.6100;            0   
    1905;  1683.4853;            3   
    1906;  1684.3606;            0   
    1907;  1685.2359;            0   
    1908;  1686.1111;            1   
    1909;  1686.9864;            1   
    1910;  1687.8617;            0   
    1911;  1688.7370;            2   
    1912;  1689.6122;            1   
    1913;  1690.4875;            2   
    1914;  1691.3628;            0   
    1915;  1692.2381;            2   
    1916;  1693.1133;            3   
    1917;  1693.9886;            3   
    1918;  1694.8639;            3   
    1919;  1695.7392;            4   
    1920;  1696.6144;            2   
    1921;  1697.4897;            1   
    1922;  1698.3650;            1   
    1923;  1699.2403;            0   
    1924;  1700.1155;            4   
    1925;  1700.9908;            1   
    1926;  1701.8661;            4   
    1927;  1702.7414;            1   
    1928;  1703.6166;            0   
    1929;  1704.4919;            2   
    1930;  1705.3672;            2   
    1931;  1706.2425;            2   
    1932;  1707.1177;            1   
    1933;  1707.9930;            3   
    1934;  1708.8683;            4   
    1935;  1709.7436;            1   
    1936;  1710.6188;            2   
    1937;  1711.4941;            2   
    1938;  1712.3694;            2   
    1939;  1713.2447;            1   
    1940;  1714.1199;            1   
    1941;  1714.9952;            0   
    1942;  1715.8705;            2   
    1943;  1716.7458;            4   
    1944;  1717.6210;            2   
    1945;  1718.4963;            0   
    1946;  1719.3716;            2   
    1947;  1720.2469;            4   
    1948;  1721.1221;            5   
    1949;  1721.9974;            3   
    1950;  1722.8727;            3   
    1951;  1723.7480;            2   
    1952;  1724.6232;            1   
    1953;  1725.4985;            0   
    1954;  1726.3738;            0   
    1955;  1727.2491;            2   
    1956;  1728.1243;            0   
    1957;  1728.9996;            1   
    1958;  1729.8749;            2   
    1959;  1730.7502;            1   
    1960;  1731.6254;            1   
    1961;  1732.5007;            1   
    1962;  1733.3760;            4   
    1963;  1734.2513;            2   
    1964;  1735.1265;            1   
    1965;  1736.0018;            2   
    1966;  1736.8771;            0   
    1967;  1737.7524;            1   
    1968;  1738.6276;            0   
    1969;  1739.5029;            0   
    1970;  1740.3782;            4   
    1971;  1741.2535;            1   
    1972;  1742.1287;            3   
    1973;  1743.0040;            3   
    1974;  1743.8793;            1   
    1975;  1744.7546;            1   
    1976;  1745.6298;            0   
    1977;  1746.5051;            1   
    1978;  1747.3804;            1   
    1979;  1748.2557;            0   
    1980;  1749.1309;            0   
    1981;  1750.0062;            0   
    1982;  1750.8815;            0   
    1983;  1751.7568;            0   
    1984;  1752.6320;            0   
    1985;  1753.5073;            0   
    1986;  1754.3826;            0   
    1987;  1755.2579;            0   
    1988;  1756.1331;            0   
    1989;  1757.0084;            0   
    1990;  1757.8837;            0   
    1991;  1758.7590;            0   
    1992;  1759.6342;            0   
    1993;  1760.5095;            0   
    1994;  1761.3848;            0   
    1995;  1762.2601;            0   
    1996;  1763.1353;            0   
    1997;  1764.0106;            0   
    1998;  1764.8859;            0   
    1999;  1765.7612;            0   
    2000;  1766.6364;            0   
    2001;  1767.5117;            0   
    2002;  1768.3870;            0   
    2003;  1769.2623;            0   
    2004;  1770.1375;            0   
    2005;  1771.0128;            0   
    2006;  1771.8881;            0   
    2007;  1772.7634;            0   
    2008;  1773.6386;            0   
    2009;  1774.5139;            0   
    2010;  1775.3892;            0   
    2011;  1776.2645;            0   
    2012;  1777.1397;            0   
    2013;  1778.0150;            0   
    2014;  1778.8903;            0   
    2015;  1779.7656;            0   
    2016;  1780.6408;            0   
    2017;  1781.5161;            0   
    2018;  1782.3914;            0   
    2019;  1783.2667;            0   
    2020;  1784.1419;            0   
    2021;  1785.0172;            0   
    2022;  1785.8925;            0   
    2023;  1786.7678;            0   
    2024;  1787.6430;            0   
    2025;  1788.5183;            0   
    2026;  1789.3936;            0   
    2027;  1790.2689;            0   
    2028;  1791.1441;            0   
    2029;  1792.0194;            0   
    2030;  1792.8947;            0   
    2031;  1793.7700;            0   
    2032;  1794.6452;            0   
    2033;  1795.5205;            0   
    2034;  1796.3958;            0   
    2035;  1797.2711;            0   
    2036;  1798.1463;            0   
    2037;  1799.0216;            0   
    2038;  1799.8969;            0   
    2039;  1800.7722;            0   
    2040;  1801.6474;            0   
    2041;  1802.5227;            0   
    2042;  1803.3980;            0   
    2043;  1804.2733;            0   
    2044;  1805.1485;            0   
    2045;  1806.0238;            0   
    2046;  1806.8991;            0   
    2047;  1807.7744;            0   
    2048;  1808.6496;            0   
ROI Nummer; Anfangskanal; Endkanal; Anfangsenergie keV ; Endenergie keV; Nettoimpulse; Bruttoimpulse; Untergrundimpulse
In den Daten wurden keine Linien gefunden
ROI Nummer; prozentualer Fehler der Lage; Lage keV; FWHM keV; FWTM keV; FWTM/FWHM Verhltnis; H/L Verhltnis
No Peak records found in data.
Name; Energie keV; Flags; Aktivitt uCi/Unit; Aktivittsfehler %; NWG uCi/Unit; MDA Error %
Es wurden keine Nuklidergebnisse gefunden.
Name; Erwartete Endergie keV; Gemessene Energie keV; Differenz von erwarteter keV; FWHM; Flags; Aktivitt uCi/Unit; Aktivittsfehler %
Es wurden keine Nuklidergebnisse gefunden.
