Kanal;   Energie(keV); Impulse
       1;    16.9617;         1359   
       2;    17.8370;         1307   
       3;    18.7122;         1292   
       4;    19.5875;         1243   
       5;    20.4628;         1184   
       6;    21.3381;         1140   
       7;    22.2133;         1102   
       8;    23.0886;         1157   
       9;    23.9639;         1033   
      10;    24.8392;         1051   
      11;    25.7144;         1041   
      12;    26.5897;         1006   
      13;    27.4650;          999   
      14;    28.3403;          937   
      15;    29.2155;         1021   
      16;    30.0908;          979   
      17;    30.9661;          959   
      18;    31.8414;          888   
      19;    32.7166;          995   
      20;    33.5919;          889   
      21;    34.4672;          952   
      22;    35.3425;          951   
      23;    36.2177;          967   
      24;    37.0930;          941   
      25;    37.9683;          910   
      26;    38.8436;          890   
      27;    39.7188;          890   
      28;    40.5941;          980   
      29;    41.4694;         1024   
      30;    42.3447;          982   
      31;    43.2199;          883   
      32;    44.0952;          886   
      33;    44.9705;          834   
      34;    45.8458;          851   
      35;    46.7210;          833   
      36;    47.5963;          928   
      37;    48.4716;          956   
      38;    49.3469;          895   
      39;    50.2221;          885   
      40;    51.0974;          868   
      41;    51.9727;          835   
      42;    52.8480;          810   
      43;    53.7232;          810   
      44;    54.5985;          823   
      45;    55.4738;          803   
      46;    56.3491;          791   
      47;    57.2243;          775   
      48;    58.0996;          789   
      49;    58.9749;          857   
      50;    59.8502;          805   
      51;    60.7254;          838   
      52;    61.6007;          868   
      53;    62.4760;          860   
      54;    63.3513;          841   
      55;    64.2265;          885   
      56;    65.1018;          825   
      57;    65.9771;          898   
      58;    66.8524;          871   
      59;    67.7276;          868   
      60;    68.6029;          935   
      61;    69.4782;          953   
      62;    70.3535;          938   
      63;    71.2287;          984   
      64;    72.1040;         1019   
      65;    72.9793;         1036   
      66;    73.8546;         1436   
      67;    74.7298;         1816   
      68;    75.6051;         1648   
      69;    76.4804;         2400   
      70;    77.3557;         1984   
      71;    78.2309;         1201   
      72;    79.1062;          959   
      73;    79.9815;         1033   
      74;    80.8568;         1033   
      75;    81.7320;         1053   
      76;    82.6073;         1067   
      77;    83.4826;         1112   
      78;    84.3579;         1259   
      79;    85.2331;         1394   
      80;    86.1084;         1920   
      81;    86.9837;         1822   
      82;    87.8590;         1378   
      83;    88.7342;         1488   
      84;    89.6095;         1355   
      85;    90.4848;         1238   
      86;    91.3601;         1161   
      87;    92.2353;         1142   
      88;    93.1106;         1161   
      89;    93.9859;         1148   
      90;    94.8612;         1215   
      91;    95.7364;         1164   
      92;    96.6117;         1193   
      93;    97.4870;         1143   
      94;    98.3623;         1174   
      95;    99.2375;         1222   
      96;   100.1128;         1264   
      97;   100.9881;         1257   
      98;   101.8634;         1221   
      99;   102.7386;         1219   
     100;   103.6139;         1226   
     101;   104.4892;         1182   
     102;   105.3645;         1280   
     103;   106.2397;         1257   
     104;   107.1150;         1292   
     105;   107.9903;         1186   
     106;   108.8656;         1318   
     107;   109.7408;         1332   
     108;   110.6161;         1309   
     109;   111.4914;         1326   
     110;   112.3667;         1365   
     111;   113.2419;         1417   
     112;   114.1172;         1337   
     113;   114.9925;         1342   
     114;   115.8678;         1396   
     115;   116.7430;         1372   
     116;   117.6183;         1309   
     117;   118.4936;         1361   
     118;   119.3689;         1412   
     119;   120.2441;         1318   
     120;   121.1194;         1455   
     121;   121.9947;         3436   
     122;   122.8700;         9997   
     123;   123.7452;         8485   
     124;   124.6205;         2444   
     125;   125.4958;         1254   
     126;   126.3711;         1109   
     127;   127.2463;         1163   
     128;   128.1216;         1111   
     129;   128.9969;         1171   
     130;   129.8722;         1111   
     131;   130.7474;         1216   
     132;   131.6227;         1162   
     133;   132.4980;         1137   
     134;   133.3733;         1135   
     135;   134.2485;         1069   
     136;   135.1238;         1117   
     137;   135.9991;         1132   
     138;   136.8744;         1095   
     139;   137.7496;         1122   
     140;   138.6249;         1062   
     141;   139.5002;         1085   
     142;   140.3755;         1128   
     143;   141.2507;         1085   
     144;   142.1260;         1100   
     145;   143.0013;         1170   
     146;   143.8766;         1059   
     147;   144.7518;         1125   
     148;   145.6271;         1188   
     149;   146.5024;         1096   
     150;   147.3777;         1074   
     151;   148.2529;         1117   
     152;   149.1282;         1205   
     153;   150.0035;         1124   
     154;   150.8788;         1170   
     155;   151.7540;         1108   
     156;   152.6293;         1144   
     157;   153.5046;         1053   
     158;   154.3799;         1186   
     159;   155.2551;         1145   
     160;   156.1304;         1076   
     161;   157.0057;         1209   
     162;   157.8810;         1123   
     163;   158.7562;         1067   
     164;   159.6315;         1127   
     165;   160.5068;         1122   
     166;   161.3821;         1118   
     167;   162.2573;         1121   
     168;   163.1326;         1139   
     169;   164.0079;         1057   
     170;   164.8832;         1061   
     171;   165.7584;         1041   
     172;   166.6337;         1050   
     173;   167.5090;         1040   
     174;   168.3843;         1037   
     175;   169.2595;         1008   
     176;   170.1348;         1020   
     177;   171.0101;         1017   
     178;   171.8854;         1049   
     179;   172.7606;         1062   
     180;   173.6359;         1016   
     181;   174.5112;          996   
     182;   175.3865;         1048   
     183;   176.2617;         1022   
     184;   177.1370;         1044   
     185;   178.0123;         1043   
     186;   178.8876;         1039   
     187;   179.7628;         1057   
     188;   180.6381;         1038   
     189;   181.5134;         1040   
     190;   182.3887;         1111   
     191;   183.2639;         1090   
     192;   184.1392;         1145   
     193;   185.0145;         1241   
     194;   185.8898;         1244   
     195;   186.7650;         1269   
     196;   187.6403;         1312   
     197;   188.5156;         1205   
     198;   189.3909;         1281   
     199;   190.2661;         1264   
     200;   191.1414;         1364   
     201;   192.0167;         1230   
     202;   192.8920;         1197   
     203;   193.7672;         1251   
     204;   194.6425;         1185   
     205;   195.5178;         1162   
     206;   196.3931;         1193   
     207;   197.2683;         1086   
     208;   198.1436;         1133   
     209;   199.0189;         1134   
     210;   199.8942;         1140   
     211;   200.7694;         1130   
     212;   201.6447;         1086   
     213;   202.5200;         1066   
     214;   203.3953;         1122   
     215;   204.2705;         1124   
     216;   205.1458;         1142   
     217;   206.0211;         1044   
     218;   206.8964;         1017   
     219;   207.7716;         1054   
     220;   208.6469;         1012   
     221;   209.5222;         1096   
     222;   210.3975;         1034   
     223;   211.2727;         1036   
     224;   212.1480;         1028   
     225;   213.0233;         1047   
     226;   213.8986;         1063   
     227;   214.7738;          968   
     228;   215.6491;         1021   
     229;   216.5244;          995   
     230;   217.3997;          994   
     231;   218.2749;          980   
     232;   219.1502;          983   
     233;   220.0255;          947   
     234;   220.9008;          993   
     235;   221.7760;         1007   
     236;   222.6513;          966   
     237;   223.5266;          908   
     238;   224.4019;          963   
     239;   225.2771;          929   
     240;   226.1524;          919   
     241;   227.0277;          879   
     242;   227.9030;          912   
     243;   228.7782;          936   
     244;   229.6535;          850   
     245;   230.5288;          952   
     246;   231.4041;          869   
     247;   232.2793;          842   
     248;   233.1546;          845   
     249;   234.0299;          871   
     250;   234.9052;          901   
     251;   235.7804;          863   
     252;   236.6557;          849   
     253;   237.5310;          779   
     254;   238.4063;          818   
     255;   239.2815;          942   
     256;   240.1568;          868   
     257;   241.0321;          820   
     258;   241.9074;          807   
     259;   242.7826;          865   
     260;   243.6579;          935   
     261;   244.5332;         1938   
     262;   245.4085;         2943   
     263;   246.2837;         1685   
     264;   247.1590;          900   
     265;   248.0343;          781   
     266;   248.9096;          767   
     267;   249.7848;          764   
     268;   250.6601;          753   
     269;   251.5354;          746   
     270;   252.4107;          762   
     271;   253.2859;          777   
     272;   254.1612;          701   
     273;   255.0365;          788   
     274;   255.9118;          767   
     275;   256.7870;          734   
     276;   257.6623;          739   
     277;   258.5376;          728   
     278;   259.4129;          714   
     279;   260.2881;          751   
     280;   261.1634;          728   
     281;   262.0387;          699   
     282;   262.9140;          760   
     283;   263.7892;          700   
     284;   264.6645;          700   
     285;   265.5398;          666   
     286;   266.4151;          727   
     287;   267.2903;          704   
     288;   268.1656;          676   
     289;   269.0409;          713   
     290;   269.9162;          707   
     291;   270.7914;          694   
     292;   271.6667;          660   
     293;   272.5420;          672   
     294;   273.4173;          663   
     295;   274.2925;          643   
     296;   275.1678;          666   
     297;   276.0431;          640   
     298;   276.9184;          677   
     299;   277.7936;          647   
     300;   278.6689;          662   
     301;   279.5442;          600   
     302;   280.4195;          640   
     303;   281.2947;          691   
     304;   282.1700;          621   
     305;   283.0453;          610   
     306;   283.9206;          677   
     307;   284.7958;          624   
     308;   285.6711;          603   
     309;   286.5464;          649   
     310;   287.4217;          593   
     311;   288.2969;          629   
     312;   289.1722;          570   
     313;   290.0475;          610   
     314;   290.9228;          576   
     315;   291.7980;          579   
     316;   292.6733;          617   
     317;   293.5486;          613   
     318;   294.4239;          577   
     319;   295.2991;          676   
     320;   296.1744;          732   
     321;   297.0497;          600   
     322;   297.9250;          567   
     323;   298.8002;          573   
     324;   299.6755;          622   
     325;   300.5508;          557   
     326;   301.4261;          593   
     327;   302.3013;          593   
     328;   303.1766;          546   
     329;   304.0519;          577   
     330;   304.9272;          578   
     331;   305.8024;          544   
     332;   306.6777;          538   
     333;   307.5530;          570   
     334;   308.4283;          562   
     335;   309.3035;          525   
     336;   310.1788;          585   
     337;   311.0541;          551   
     338;   311.9294;          525   
     339;   312.8046;          503   
     340;   313.6799;          475   
     341;   314.5552;          584   
     342;   315.4305;          527   
     343;   316.3057;          568   
     344;   317.1810;          487   
     345;   318.0563;          566   
     346;   318.9316;          559   
     347;   319.8068;          510   
     348;   320.6821;          542   
     349;   321.5574;          546   
     350;   322.4327;          523   
     351;   323.3079;          501   
     352;   324.1832;          500   
     353;   325.0585;          533   
     354;   325.9338;          498   
     355;   326.8090;          483   
     356;   327.6843;          505   
     357;   328.5596;          561   
     358;   329.4349;          524   
     359;   330.3101;          512   
     360;   331.1854;          542   
     361;   332.0607;          519   
     362;   332.9360;          500   
     363;   333.8112;          498   
     364;   334.6865;          520   
     365;   335.5618;          472   
     366;   336.4371;          465   
     367;   337.3123;          483   
     368;   338.1876;          528   
     369;   339.0629;          514   
     370;   339.9382;          519   
     371;   340.8134;          523   
     372;   341.6887;          541   
     373;   342.5640;          792   
     374;   343.4393;         2853   
     375;   344.3145;         5759   
     376;   345.1898;         3375   
     377;   346.0651;          883   
     378;   346.9404;          528   
     379;   347.8156;          510   
     380;   348.6909;          462   
     381;   349.5662;          506   
     382;   350.4415;          505   
     383;   351.3167;          530   
     384;   352.1920;          523   
     385;   353.0673;          474   
     386;   353.9426;          481   
     387;   354.8178;          484   
     388;   355.6931;          456   
     389;   356.5684;          477   
     390;   357.4437;          438   
     391;   358.3189;          457   
     392;   359.1942;          445   
     393;   360.0695;          457   
     394;   360.9448;          444   
     395;   361.8200;          467   
     396;   362.6953;          468   
     397;   363.5706;          444   
     398;   364.4459;          467   
     399;   365.3211;          435   
     400;   366.1964;          481   
     401;   367.0717;          608   
     402;   367.9470;          586   
     403;   368.8222;          523   
     404;   369.6975;          428   
     405;   370.5728;          461   
     406;   371.4481;          439   
     407;   372.3233;          472   
     408;   373.1986;          467   
     409;   374.0739;          448   
     410;   374.9492;          438   
     411;   375.8244;          480   
     412;   376.6997;          484   
     413;   377.5750;          466   
     414;   378.4503;          469   
     415;   379.3255;          484   
     416;   380.2008;          501   
     417;   381.0761;          468   
     418;   381.9514;          493   
     419;   382.8266;          460   
     420;   383.7019;          438   
     421;   384.5772;          470   
     422;   385.4525;          463   
     423;   386.3277;          459   
     424;   387.2030;          472   
     425;   388.0783;          497   
     426;   388.9536;          404   
     427;   389.8288;          466   
     428;   390.7041;          488   
     429;   391.5794;          495   
     430;   392.4547;          455   
     431;   393.3299;          476   
     432;   394.2052;          453   
     433;   395.0805;          450   
     434;   395.9558;          465   
     435;   396.8310;          480   
     436;   397.7063;          502   
     437;   398.5816;          479   
     438;   399.4569;          509   
     439;   400.3321;          504   
     440;   401.2074;          497   
     441;   402.0827;          470   
     442;   402.9580;          466   
     443;   403.8332;          486   
     444;   404.7085;          462   
     445;   405.5838;          503   
     446;   406.4591;          500   
     447;   407.3343;          465   
     448;   408.2096;          472   
     449;   409.0849;          523   
     450;   409.9602;          697   
     451;   410.8354;          879   
     452;   411.7107;          688   
     453;   412.5860;          530   
     454;   413.4613;          488   
     455;   414.3365;          478   
     456;   415.2118;          525   
     457;   416.0871;          505   
     458;   416.9624;          484   
     459;   417.8376;          563   
     460;   418.7129;          512   
     461;   419.5882;          517   
     462;   420.4635;          482   
     463;   421.3387;          562   
     464;   422.2140;          491   
     465;   423.0893;          516   
     466;   423.9646;          529   
     467;   424.8398;          492   
     468;   425.7151;          500   
     469;   426.5904;          530   
     470;   427.4657;          561   
     471;   428.3409;          522   
     472;   429.2162;          531   
     473;   430.0915;          501   
     474;   430.9668;          577   
     475;   431.8420;          542   
     476;   432.7173;          555   
     477;   433.5926;          545   
     478;   434.4679;          545   
     479;   435.3431;          544   
     480;   436.2184;          540   
     481;   437.0937;          544   
     482;   437.9690;          559   
     483;   438.8442;          499   
     484;   439.7195;          522   
     485;   440.5948;          549   
     486;   441.4701;          555   
     487;   442.3453;          718   
     488;   443.2206;         1038   
     489;   444.0959;          897   
     490;   444.9712;          660   
     491;   445.8464;          583   
     492;   446.7217;          537   
     493;   447.5970;          509   
     494;   448.4723;          576   
     495;   449.3475;          550   
     496;   450.2228;          580   
     497;   451.0981;          556   
     498;   451.9734;          592   
     499;   452.8486;          589   
     500;   453.7239;          553   
     501;   454.5992;          552   
     502;   455.4745;          562   
     503;   456.3497;          574   
     504;   457.2250;          579   
     505;   458.1003;          547   
     506;   458.9756;          593   
     507;   459.8508;          539   
     508;   460.7261;          588   
     509;   461.6014;          620   
     510;   462.4767;          592   
     511;   463.3519;          578   
     512;   464.2272;          591   
     513;   465.1025;          603   
     514;   465.9778;          556   
     515;   466.8530;          552   
     516;   467.7283;          623   
     517;   468.6036;          618   
     518;   469.4789;          600   
     519;   470.3541;          595   
     520;   471.2294;          560   
     521;   472.1047;          573   
     522;   472.9800;          564   
     523;   473.8552;          540   
     524;   474.7305;          534   
     525;   475.6058;          519   
     526;   476.4811;          523   
     527;   477.3563;          478   
     528;   478.2316;          484   
     529;   479.1069;          418   
     530;   479.9822;          437   
     531;   480.8574;          415   
     532;   481.7327;          411   
     533;   482.6080;          385   
     534;   483.4833;          402   
     535;   484.3585;          386   
     536;   485.2338;          390   
     537;   486.1091;          379   
     538;   486.9844;          402   
     539;   487.8596;          413   
     540;   488.7349;          399   
     541;   489.6102;          363   
     542;   490.4855;          344   
     543;   491.3607;          391   
     544;   492.2360;          356   
     545;   493.1113;          337   
     546;   493.9866;          344   
     547;   494.8618;          331   
     548;   495.7371;          326   
     549;   496.6124;          323   
     550;   497.4877;          316   
     551;   498.3629;          312   
     552;   499.2382;          319   
     553;   500.1135;          316   
     554;   500.9888;          325   
     555;   501.8640;          327   
     556;   502.7393;          367   
     557;   503.6146;          291   
     558;   504.4899;          313   
     559;   505.3651;          329   
     560;   506.2404;          305   
     561;   507.1157;          306   
     562;   507.9910;          326   
     563;   508.8662;          321   
     564;   509.7415;          327   
     565;   510.6168;          330   
     566;   511.4921;          293   
     567;   512.3673;          294   
     568;   513.2426;          288   
     569;   514.1179;          299   
     570;   514.9932;          263   
     571;   515.8684;          282   
     572;   516.7437;          278   
     573;   517.6190;          265   
     574;   518.4943;          259   
     575;   519.3695;          278   
     576;   520.2448;          271   
     577;   521.1201;          274   
     578;   521.9954;          258   
     579;   522.8706;          251   
     580;   523.7459;          285   
     581;   524.6212;          260   
     582;   525.4965;          244   
     583;   526.3717;          231   
     584;   527.2470;          224   
     585;   528.1223;          223   
     586;   528.9976;          233   
     587;   529.8728;          212   
     588;   530.7481;          233   
     589;   531.6234;          250   
     590;   532.4987;          268   
     591;   533.3739;          234   
     592;   534.2492;          243   
     593;   535.1245;          223   
     594;   535.9998;          205   
     595;   536.8750;          210   
     596;   537.7503;          191   
     597;   538.6256;          220   
     598;   539.5009;          223   
     599;   540.3761;          200   
     600;   541.2514;          202   
     601;   542.1267;          216   
     602;   543.0020;          211   
     603;   543.8772;          200   
     604;   544.7525;          215   
     605;   545.6278;          203   
     606;   546.5031;          207   
     607;   547.3783;          199   
     608;   548.2536;          207   
     609;   549.1289;          222   
     610;   550.0042;          195   
     611;   550.8794;          199   
     612;   551.7547;          195   
     613;   552.6300;          177   
     614;   553.5053;          185   
     615;   554.3805;          198   
     616;   555.2558;          174   
     617;   556.1311;          179   
     618;   557.0064;          176   
     619;   557.8816;          177   
     620;   558.7569;          174   
     621;   559.6322;          179   
     622;   560.5075;          196   
     623;   561.3827;          156   
     624;   562.2580;          236   
     625;   563.1333;          242   
     626;   564.0086;          191   
     627;   564.8838;          208   
     628;   565.7591;          196   
     629;   566.6344;          174   
     630;   567.5097;          171   
     631;   568.3849;          147   
     632;   569.2602;          168   
     633;   570.1355;          170   
     634;   571.0108;          177   
     635;   571.8860;          151   
     636;   572.7613;          159   
     637;   573.6366;          167   
     638;   574.5119;          160   
     639;   575.3871;          143   
     640;   576.2624;          177   
     641;   577.1377;          156   
     642;   578.0130;          134   
     643;   578.8882;          142   
     644;   579.7635;          177   
     645;   580.6388;          178   
     646;   581.5141;          207   
     647;   582.3893;          216   
     648;   583.2646;          178   
     649;   584.1399;          176   
     650;   585.0152;          194   
     651;   585.8904;          203   
     652;   586.7657;          157   
     653;   587.6410;          133   
     654;   588.5163;          139   
     655;   589.3915;          150   
     656;   590.2668;          145   
     657;   591.1421;          142   
     658;   592.0174;          157   
     659;   592.8926;          140   
     660;   593.7679;          171   
     661;   594.6432;          137   
     662;   595.5185;          135   
     663;   596.3937;          151   
     664;   597.2690;          158   
     665;   598.1443;          133   
     666;   599.0196;          147   
     667;   599.8948;          133   
     668;   600.7701;          121   
     669;   601.6454;          143   
     670;   602.5207;          148   
     671;   603.3959;          146   
     672;   604.2712;          136   
     673;   605.1465;          149   
     674;   606.0218;          134   
     675;   606.8970;          173   
     676;   607.7723;          193   
     677;   608.6476;          182   
     678;   609.5229;          134   
     679;   610.3981;           98   
     680;   611.2734;          146   
     681;   612.1487;          147   
     682;   613.0240;          123   
     683;   613.8992;          122   
     684;   614.7745;          149   
     685;   615.6498;          142   
     686;   616.5251;          145   
     687;   617.4003;          146   
     688;   618.2756;          131   
     689;   619.1509;          133   
     690;   620.0262;          101   
     691;   620.9014;          133   
     692;   621.7767;          121   
     693;   622.6520;          134   
     694;   623.5273;          143   
     695;   624.4025;          117   
     696;   625.2778;          148   
     697;   626.1531;          120   
     698;   627.0284;          126   
     699;   627.9036;          119   
     700;   628.7789;          121   
     701;   629.6542;          107   
     702;   630.5295;          150   
     703;   631.4047;          136   
     704;   632.2800;          138   
     705;   633.1553;          130   
     706;   634.0306;          132   
     707;   634.9058;          129   
     708;   635.7811;          133   
     709;   636.6564;          108   
     710;   637.5317;          126   
     711;   638.4069;          110   
     712;   639.2822;          121   
     713;   640.1575;          132   
     714;   641.0328;          129   
     715;   641.9080;          120   
     716;   642.7833;          129   
     717;   643.6586;          135   
     718;   644.5339;          135   
     719;   645.4091;          118   
     720;   646.2844;          140   
     721;   647.1597;          117   
     722;   648.0350;          123   
     723;   648.9102;          111   
     724;   649.7855;          133   
     725;   650.6608;          141   
     726;   651.5361;          123   
     727;   652.4113;          139   
     728;   653.2866;          128   
     729;   654.1619;          130   
     730;   655.0372;          166   
     731;   655.9124;          168   
     732;   656.7877;          199   
     733;   657.6630;         1037   
     734;   658.5383;         7801   
     735;   659.4135;        23745   
     736;   660.2888;        24134   
     737;   661.1641;         7894   
     738;   662.0394;         1005   
     739;   662.9146;          308   
     740;   663.7899;          224   
     741;   664.6652;          152   
     742;   665.5405;          129   
     743;   666.4157;          122   
     744;   667.2910;          100   
     745;   668.1663;          106   
     746;   669.0416;          115   
     747;   669.9168;          102   
     748;   670.7921;          104   
     749;   671.6674;           96   
     750;   672.5427;          109   
     751;   673.4179;          112   
     752;   674.2932;          105   
     753;   675.1685;          119   
     754;   676.0438;          144   
     755;   676.9190;          162   
     756;   677.7943;          102   
     757;   678.6696;           88   
     758;   679.5449;          105   
     759;   680.4201;           88   
     760;   681.2954;           90   
     761;   682.1707;           92   
     762;   683.0460;           94   
     763;   683.9212;           96   
     764;   684.7965;           95   
     765;   685.6718;          118   
     766;   686.5471;          162   
     767;   687.4223;          152   
     768;   688.2976;          107   
     769;   689.1729;           99   
     770;   690.0482;           95   
     771;   690.9234;           82   
     772;   691.7987;          113   
     773;   692.6740;           95   
     774;   693.5493;           87   
     775;   694.4245;          104   
     776;   695.2998;           93   
     777;   696.1751;           87   
     778;   697.0504;           80   
     779;   697.9256;           80   
     780;   698.8009;           90   
     781;   699.6762;           90   
     782;   700.5515;           84   
     783;   701.4267;           77   
     784;   702.3020;           93   
     785;   703.1773;           74   
     786;   704.0526;          101   
     787;   704.9278;           79   
     788;   705.8031;          100   
     789;   706.6784;           78   
     790;   707.5537;           91   
     791;   708.4289;           82   
     792;   709.3042;           85   
     793;   710.1795;           97   
     794;   711.0548;           90   
     795;   711.9300;           78   
     796;   712.8053;           93   
     797;   713.6806;          106   
     798;   714.5559;           89   
     799;   715.4311;           93   
     800;   716.3064;          115   
     801;   717.1817;          121   
     802;   718.0570;          118   
     803;   718.9322;           87   
     804;   719.8075;           83   
     805;   720.6828;          103   
     806;   721.5581;          102   
     807;   722.4333;           75   
     808;   723.3086;           79   
     809;   724.1839;           77   
     810;   725.0592;           92   
     811;   725.9344;           86   
     812;   726.8097;           79   
     813;   727.6850;           85   
     814;   728.5603;           88   
     815;   729.4355;           77   
     816;   730.3108;           71   
     817;   731.1861;           84   
     818;   732.0614;           93   
     819;   732.9366;           90   
     820;   733.8119;           89   
     821;   734.6872;           66   
     822;   735.5625;           91   
     823;   736.4377;           92   
     824;   737.3130;           67   
     825;   738.1883;           94   
     826;   739.0636;           85   
     827;   739.9388;           93   
     828;   740.8141;           71   
     829;   741.6894;          109   
     830;   742.5647;          102   
     831;   743.4399;           82   
     832;   744.3152;           82   
     833;   745.1905;           67   
     834;   746.0658;           81   
     835;   746.9410;           86   
     836;   747.8163;           87   
     837;   748.6916;           75   
     838;   749.5669;           82   
     839;   750.4421;           89   
     840;   751.3174;           83   
     841;   752.1927;           96   
     842;   753.0680;           75   
     843;   753.9432;           88   
     844;   754.8185;           96   
     845;   755.6938;           85   
     846;   756.5691;           81   
     847;   757.4443;           83   
     848;   758.3196;           72   
     849;   759.1949;           77   
     850;   760.0702;           68   
     851;   760.9454;           74   
     852;   761.8207;           96   
     853;   762.6960;           96   
     854;   763.5713;           85   
     855;   764.4465;           94   
     856;   765.3218;           83   
     857;   766.1971;           90   
     858;   767.0724;           81   
     859;   767.9476;           76   
     860;   768.8229;           90   
     861;   769.6982;           73   
     862;   770.5735;           81   
     863;   771.4487;           62   
     864;   772.3240;           80   
     865;   773.1993;           87   
     866;   774.0746;          115   
     867;   774.9498;          410   
     868;   775.8251;         1010   
     869;   776.7004;         1166   
     870;   777.5757;          550   
     871;   778.4509;          131   
     872;   779.3262;           80   
     873;   780.2015;           80   
     874;   781.0768;           73   
     875;   781.9520;           83   
     876;   782.8273;           78   
     877;   783.7026;           65   
     878;   784.5779;           59   
     879;   785.4531;           57   
     880;   786.3284;           72   
     881;   787.2037;           84   
     882;   788.0790;           57   
     883;   788.9542;           59   
     884;   789.8295;           54   
     885;   790.7048;           69   
     886;   791.5801;           69   
     887;   792.4553;           81   
     888;   793.3306;           82   
     889;   794.2059;           68   
     890;   795.0812;           69   
     891;   795.9564;           67   
     892;   796.8317;           68   
     893;   797.7070;           68   
     894;   798.5823;           70   
     895;   799.4575;           74   
     896;   800.3328;           55   
     897;   801.2081;           74   
     898;   802.0834;           55   
     899;   802.9586;           54   
     900;   803.8339;           68   
     901;   804.7092;           75   
     902;   805.5845;           77   
     903;   806.4597;           92   
     904;   807.3350;           77   
     905;   808.2103;           81   
     906;   809.0856;           77   
     907;   809.9608;           78   
     908;   810.8361;           79   
     909;   811.7114;           61   
     910;   812.5867;           52   
     911;   813.4619;           68   
     912;   814.3372;           67   
     913;   815.2125;           54   
     914;   816.0878;           67   
     915;   816.9631;           69   
     916;   817.8383;           70   
     917;   818.7136;           66   
     918;   819.5889;           69   
     919;   820.4642;           71   
     920;   821.3394;           51   
     921;   822.2147;           65   
     922;   823.0900;           41   
     923;   823.9653;           61   
     924;   824.8405;           64   
     925;   825.7158;           60   
     926;   826.5911;           59   
     927;   827.4664;           75   
     928;   828.3416;           69   
     929;   829.2169;           62   
     930;   830.0922;           68   
     931;   830.9675;           66   
     932;   831.8427;           71   
     933;   832.7180;           77   
     934;   833.5933;           74   
     935;   834.4686;           73   
     936;   835.3438;           75   
     937;   836.2191;           81   
     938;   837.0944;           92   
     939;   837.9697;           69   
     940;   838.8449;           71   
     941;   839.7202;           67   
     942;   840.5955;           77   
     943;   841.4708;           63   
     944;   842.3460;           68   
     945;   843.2213;           54   
     946;   844.0966;           65   
     947;   844.9719;           65   
     948;   845.8471;           59   
     949;   846.7224;           61   
     950;   847.5977;           80   
     951;   848.4730;           54   
     952;   849.3482;           72   
     953;   850.2235;           52   
     954;   851.0988;           61   
     955;   851.9741;           67   
     956;   852.8493;           73   
     957;   853.7246;           40   
     958;   854.5999;           72   
     959;   855.4752;           67   
     960;   856.3504;           59   
     961;   857.2257;           82   
     962;   858.1010;           69   
     963;   858.9763;           72   
     964;   859.8515;           80   
     965;   860.7268;           52   
     966;   861.6021;           67   
     967;   862.4774;          107   
     968;   863.3526;          279   
     969;   864.2279;          414   
     970;   865.1032;          267   
     971;   865.9785;           98   
     972;   866.8537;           66   
     973;   867.7290;           57   
     974;   868.6043;           80   
     975;   869.4796;           67   
     976;   870.3548;           69   
     977;   871.2301;           77   
     978;   872.1054;           53   
     979;   872.9807;           74   
     980;   873.8559;           76   
     981;   874.7312;           71   
     982;   875.6065;           63   
     983;   876.4818;           66   
     984;   877.3570;           61   
     985;   878.2323;           59   
     986;   879.1076;           62   
     987;   879.9829;           65   
     988;   880.8581;           53   
     989;   881.7334;           54   
     990;   882.6087;           64   
     991;   883.4840;           59   
     992;   884.3592;           44   
     993;   885.2345;           60   
     994;   886.1098;           69   
     995;   886.9851;           53   
     996;   887.8603;           64   
     997;   888.7356;           53   
     998;   889.6109;           55   
     999;   890.4862;           56   
    1000;   891.3614;           58   
    1001;   892.2367;           51   
    1002;   893.1120;           57   
    1003;   893.9873;           54   
    1004;   894.8625;           60   
    1005;   895.7378;           62   
    1006;   896.6131;           56   
    1007;   897.4884;           67   
    1008;   898.3636;           47   
    1009;   899.2389;           51   
    1010;   900.1142;           57   
    1011;   900.9895;           63   
    1012;   901.8647;           56   
    1013;   902.7400;           49   
    1014;   903.6153;           40   
    1015;   904.4906;           55   
    1016;   905.3658;           47   
    1017;   906.2411;           54   
    1018;   907.1164;           74   
    1019;   907.9917;           84   
    1020;   908.8669;           70   
    1021;   909.7422;           42   
    1022;   910.6175;           60   
    1023;   911.4928;           45   
    1024;   912.3680;           54   
    1025;   913.2433;           54   
    1026;   914.1186;           40   
    1027;   914.9939;           65   
    1028;   915.8691;           84   
    1029;   916.7444;           68   
    1030;   917.6197;           47   
    1031;   918.4950;           37   
    1032;   919.3702;           47   
    1033;   920.2455;           42   
    1034;   921.1208;           40   
    1035;   921.9961;           56   
    1036;   922.8713;           65   
    1037;   923.7466;           53   
    1038;   924.6219;           40   
    1039;   925.4972;           52   
    1040;   926.3724;           46   
    1041;   927.2477;           44   
    1042;   928.1230;           71   
    1043;   928.9983;           32   
    1044;   929.8735;           47   
    1045;   930.7488;           39   
    1046;   931.6241;           39   
    1047;   932.4994;           51   
    1048;   933.3746;           45   
    1049;   934.2499;           45   
    1050;   935.1252;           42   
    1051;   936.0005;           50   
    1052;   936.8757;           32   
    1053;   937.7510;           46   
    1054;   938.6263;           45   
    1055;   939.5016;           49   
    1056;   940.3768;           45   
    1057;   941.2521;           47   
    1058;   942.1274;           41   
    1059;   943.0027;           40   
    1060;   943.8779;           42   
    1061;   944.7532;           49   
    1062;   945.6285;           38   
    1063;   946.5038;           42   
    1064;   947.3790;           53   
    1065;   948.2543;           43   
    1066;   949.1296;           39   
    1067;   950.0049;           44   
    1068;   950.8801;           49   
    1069;   951.7554;           46   
    1070;   952.6307;           39   
    1071;   953.5060;           42   
    1072;   954.3812;           46   
    1073;   955.2565;           36   
    1074;   956.1318;           36   
    1075;   957.0071;           23   
    1076;   957.8823;           92   
    1077;   958.7576;          339   
    1078;   959.6329;          842   
    1079;   960.5082;         1056   
    1080;   961.3834;          490   
    1081;   962.2587;          139   
    1082;   963.1340;           58   
    1083;   964.0093;           57   
    1084;   964.8845;           61   
    1085;   965.7598;           65   
    1086;   966.6351;           46   
    1087;   967.5104;           38   
    1088;   968.3856;           46   
    1089;   969.2609;           51   
    1090;   970.1362;           35   
    1091;   971.0115;           37   
    1092;   971.8867;           39   
    1093;   972.7620;           37   
    1094;   973.6373;           37   
    1095;   974.5126;           26   
    1096;   975.3878;           28   
    1097;   976.2631;           24   
    1098;   977.1384;           39   
    1099;   978.0137;           33   
    1100;   978.8889;           39   
    1101;   979.7642;           34   
    1102;   980.6395;           48   
    1103;   981.5148;           38   
    1104;   982.3900;           26   
    1105;   983.2653;           36   
    1106;   984.1406;           31   
    1107;   985.0159;           29   
    1108;   985.8911;           26   
    1109;   986.7664;           39   
    1110;   987.6417;           36   
    1111;   988.5170;           28   
    1112;   989.3922;           34   
    1113;   990.2675;           39   
    1114;   991.1428;           39   
    1115;   992.0181;           42   
    1116;   992.8933;           45   
    1117;   993.7686;           32   
    1118;   994.6439;           33   
    1119;   995.5192;           30   
    1120;   996.3944;           40   
    1121;   997.2697;           42   
    1122;   998.1450;           34   
    1123;   999.0203;           46   
    1124;   999.8955;           65   
    1125;  1000.7708;           84   
    1126;  1001.6461;           73   
    1127;  1002.5214;           38   
    1128;  1003.3966;           32   
    1129;  1004.2719;           40   
    1130;  1005.1472;           34   
    1131;  1006.0225;           46   
    1132;  1006.8977;           31   
    1133;  1007.7730;           30   
    1134;  1008.6483;           41   
    1135;  1009.5236;           32   
    1136;  1010.3988;           27   
    1137;  1011.2741;           44   
    1138;  1012.1494;           33   
    1139;  1013.0247;           30   
    1140;  1013.8999;           34   
    1141;  1014.7752;           26   
    1142;  1015.6505;           38   
    1143;  1016.5258;           26   
    1144;  1017.4010;           43   
    1145;  1018.2763;           27   
    1146;  1019.1516;           29   
    1147;  1020.0269;           36   
    1148;  1020.9021;           29   
    1149;  1021.7774;           20   
    1150;  1022.6527;           32   
    1151;  1023.5280;           31   
    1152;  1024.4032;           42   
    1153;  1025.2785;           31   
    1154;  1026.1538;           30   
    1155;  1027.0291;           25   
    1156;  1027.9043;           24   
    1157;  1028.7796;           36   
    1158;  1029.6549;           44   
    1159;  1030.5302;           25   
    1160;  1031.4054;           35   
    1161;  1032.2807;           27   
    1162;  1033.1560;           40   
    1163;  1034.0313;           33   
    1164;  1034.9065;           29   
    1165;  1035.7818;           29   
    1166;  1036.6571;           37   
    1167;  1037.5324;           32   
    1168;  1038.4076;           35   
    1169;  1039.2829;           30   
    1170;  1040.1582;           26   
    1171;  1041.0335;           37   
    1172;  1041.9087;           29   
    1173;  1042.7840;           38   
    1174;  1043.6593;           29   
    1175;  1044.5346;           34   
    1176;  1045.4098;           35   
    1177;  1046.2851;           27   
    1178;  1047.1604;           25   
    1179;  1048.0357;           36   
    1180;  1048.9109;           31   
    1181;  1049.7862;           32   
    1182;  1050.6615;           34   
    1183;  1051.5368;           19   
    1184;  1052.4120;           39   
    1185;  1053.2873;           36   
    1186;  1054.1626;           37   
    1187;  1055.0379;           32   
    1188;  1055.9131;           34   
    1189;  1056.7884;           28   
    1190;  1057.6637;           29   
    1191;  1058.5390;           37   
    1192;  1059.4142;           45   
    1193;  1060.2895;           29   
    1194;  1061.1648;           48   
    1195;  1062.0401;           31   
    1196;  1062.9153;           36   
    1197;  1063.7906;           29   
    1198;  1064.6659;           38   
    1199;  1065.5412;           26   
    1200;  1066.4164;           35   
    1201;  1067.2917;           34   
    1202;  1068.1670;           35   
    1203;  1069.0423;           35   
    1204;  1069.9175;           27   
    1205;  1070.7928;           27   
    1206;  1071.6681;           35   
    1207;  1072.5434;           41   
    1208;  1073.4186;           18   
    1209;  1074.2939;           27   
    1210;  1075.1692;           26   
    1211;  1076.0445;           32   
    1212;  1076.9197;           29   
    1213;  1077.7950;           51   
    1214;  1078.6703;           47   
    1215;  1079.5456;          203   
    1216;  1080.4208;          492   
    1217;  1081.2961;          672   
    1218;  1082.1714;          374   
    1219;  1083.0467;          117   
    1220;  1083.9219;          105   
    1221;  1084.7972;          131   
    1222;  1085.6725;          123   
    1223;  1086.5478;           67   
    1224;  1087.4230;           32   
    1225;  1088.2983;           39   
    1226;  1089.1736;           29   
    1227;  1090.0489;           30   
    1228;  1090.9241;           26   
    1229;  1091.7994;           26   
    1230;  1092.6747;           29   
    1231;  1093.5500;           43   
    1232;  1094.4252;           28   
    1233;  1095.3005;           31   
    1234;  1096.1758;           44   
    1235;  1097.0511;           38   
    1236;  1097.9263;           15   
    1237;  1098.8016;           35   
    1238;  1099.6769;           31   
    1239;  1100.5522;           41   
    1240;  1101.4274;           23   
    1241;  1102.3027;           29   
    1242;  1103.1780;           34   
    1243;  1104.0533;           46   
    1244;  1104.9285;           97   
    1245;  1105.8038;          288   
    1246;  1106.6791;          757   
    1247;  1107.5544;          809   
    1248;  1108.4296;          356   
    1249;  1109.3049;          105   
    1250;  1110.1802;           43   
    1251;  1111.0555;           26   
    1252;  1111.9307;           35   
    1253;  1112.8060;           29   
    1254;  1113.6813;           33   
    1255;  1114.5566;           40   
    1256;  1115.4318;           47   
    1257;  1116.3071;           41   
    1258;  1117.1824;           31   
    1259;  1118.0577;           28   
    1260;  1118.9329;           31   
    1261;  1119.8082;           32   
    1262;  1120.6835;           39   
    1263;  1121.5588;           31   
    1264;  1122.4340;           33   
    1265;  1123.3093;           24   
    1266;  1124.1846;           28   
    1267;  1125.0599;           35   
    1268;  1125.9351;           38   
    1269;  1126.8104;           40   
    1270;  1127.6857;           39   
    1271;  1128.5610;           33   
    1272;  1129.4362;           32   
    1273;  1130.3115;           34   
    1274;  1131.1868;           24   
    1275;  1132.0621;           24   
    1276;  1132.9373;           37   
    1277;  1133.8126;           31   
    1278;  1134.6879;           26   
    1279;  1135.5632;           29   
    1280;  1136.4384;           31   
    1281;  1137.3137;           32   
    1282;  1138.1890;           32   
    1283;  1139.0643;           32   
    1284;  1139.9395;           38   
    1285;  1140.8148;           38   
    1286;  1141.6901;           31   
    1287;  1142.5654;           43   
    1288;  1143.4406;           30   
    1289;  1144.3159;           36   
    1290;  1145.1912;           29   
    1291;  1146.0665;           42   
    1292;  1146.9417;           35   
    1293;  1147.8170;           38   
    1294;  1148.6923;           37   
    1295;  1149.5676;           33   
    1296;  1150.4428;           26   
    1297;  1151.3181;           44   
    1298;  1152.1934;           42   
    1299;  1153.0687;           32   
    1300;  1153.9439;           34   
    1301;  1154.8192;           34   
    1302;  1155.6945;           31   
    1303;  1156.5698;           50   
    1304;  1157.4450;           46   
    1305;  1158.3203;           35   
    1306;  1159.1956;           32   
    1307;  1160.0709;           26   
    1308;  1160.9461;           35   
    1309;  1161.8214;           28   
    1310;  1162.6967;           33   
    1311;  1163.5720;           35   
    1312;  1164.4472;           27   
    1313;  1165.3225;           49   
    1314;  1166.1978;           31   
    1315;  1167.0731;           28   
    1316;  1167.9483;           27   
    1317;  1168.8236;           40   
    1318;  1169.6989;           34   
    1319;  1170.5742;           36   
    1320;  1171.4494;           34   
    1321;  1172.3247;           36   
    1322;  1173.2000;           38   
    1323;  1174.0753;           41   
    1324;  1174.9505;           27   
    1325;  1175.8258;           46   
    1326;  1176.7011;           25   
    1327;  1177.5764;           36   
    1328;  1178.4516;           32   
    1329;  1179.3269;           38   
    1330;  1180.2022;           24   
    1331;  1181.0775;           34   
    1332;  1181.9527;           37   
    1333;  1182.8280;           32   
    1334;  1183.7033;           34   
    1335;  1184.5786;           43   
    1336;  1185.4538;           22   
    1337;  1186.3291;           32   
    1338;  1187.2044;           27   
    1339;  1188.0797;           41   
    1340;  1188.9549;           31   
    1341;  1189.8302;           19   
    1342;  1190.7055;           28   
    1343;  1191.5808;           24   
    1344;  1192.4560;           32   
    1345;  1193.3313;           24   
    1346;  1194.2066;           22   
    1347;  1195.0819;           31   
    1348;  1195.9571;           19   
    1349;  1196.8324;           22   
    1350;  1197.7077;           21   
    1351;  1198.5830;           14   
    1352;  1199.4582;           26   
    1353;  1200.3335;           26   
    1354;  1201.2088;           28   
    1355;  1202.0841;           29   
    1356;  1202.9593;           31   
    1357;  1203.8346;           23   
    1358;  1204.7099;           32   
    1359;  1205.5852;           36   
    1360;  1206.4604;           75   
    1361;  1207.3357;           84   
    1362;  1208.2110;           86   
    1363;  1209.0863;           40   
    1364;  1209.9615;           31   
    1365;  1210.8368;           30   
    1366;  1211.7121;           22   
    1367;  1212.5874;           20   
    1368;  1213.4626;           25   
    1369;  1214.3379;           17   
    1370;  1215.2132;           20   
    1371;  1216.0885;           23   
    1372;  1216.9637;           22   
    1373;  1217.8390;           22   
    1374;  1218.7143;           15   
    1375;  1219.5896;           17   
    1376;  1220.4648;           23   
    1377;  1221.3401;           24   
    1378;  1222.2154;           24   
    1379;  1223.0907;           19   
    1380;  1223.9659;           26   
    1381;  1224.8412;           18   
    1382;  1225.7165;           28   
    1383;  1226.5918;           19   
    1384;  1227.4670;           25   
    1385;  1228.3423;           27   
    1386;  1229.2176;           18   
    1387;  1230.0929;           21   
    1388;  1230.9681;           29   
    1389;  1231.8434;           35   
    1390;  1232.7187;           27   
    1391;  1233.5940;           27   
    1392;  1234.4692;           23   
    1393;  1235.3445;           16   
    1394;  1236.2198;           22   
    1395;  1237.0951;           28   
    1396;  1237.9703;           16   
    1397;  1238.8456;           27   
    1398;  1239.7209;           22   
    1399;  1240.5962;           24   
    1400;  1241.4714;           14   
    1401;  1242.3467;           29   
    1402;  1243.2220;           24   
    1403;  1244.0973;           21   
    1404;  1244.9725;           25   
    1405;  1245.8478;           18   
    1406;  1246.7231;           20   
    1407;  1247.5984;           22   
    1408;  1248.4736;           18   
    1409;  1249.3489;           13   
    1410;  1250.2242;           19   
    1411;  1251.0995;           20   
    1412;  1251.9747;           19   
    1413;  1252.8500;           20   
    1414;  1253.7253;           19   
    1415;  1254.6006;           21   
    1416;  1255.4758;           17   
    1417;  1256.3511;           21   
    1418;  1257.2264;           16   
    1419;  1258.1017;           12   
    1420;  1258.9769;           18   
    1421;  1259.8522;           17   
    1422;  1260.7275;           14   
    1423;  1261.6028;           19   
    1424;  1262.4780;           18   
    1425;  1263.3533;           22   
    1426;  1264.2286;           18   
    1427;  1265.1039;           11   
    1428;  1265.9791;           18   
    1429;  1266.8544;           16   
    1430;  1267.7297;           27   
    1431;  1268.6050;           22   
    1432;  1269.4802;           20   
    1433;  1270.3555;           20   
    1434;  1271.2308;           16   
    1435;  1272.1061;           17   
    1436;  1272.9813;           16   
    1437;  1273.8566;           21   
    1438;  1274.7319;           17   
    1439;  1275.6072;           14   
    1440;  1276.4824;            9   
    1441;  1277.3577;           17   
    1442;  1278.2330;           12   
    1443;  1279.1083;           10   
    1444;  1279.9835;           11   
    1445;  1280.8588;           13   
    1446;  1281.7341;           11   
    1447;  1282.6094;           17   
    1448;  1283.4846;            4   
    1449;  1284.3599;           16   
    1450;  1285.2352;           14   
    1451;  1286.1105;           17   
    1452;  1286.9857;           18   
    1453;  1287.8610;           21   
    1454;  1288.7363;           14   
    1455;  1289.6116;           15   
    1456;  1290.4868;           12   
    1457;  1291.3621;           41   
    1458;  1292.2374;           68   
    1459;  1293.1127;           88   
    1460;  1293.9879;           36   
    1461;  1294.8632;           19   
    1462;  1295.7385;           19   
    1463;  1296.6138;            9   
    1464;  1297.4890;            8   
    1465;  1298.3643;           11   
    1466;  1299.2396;           15   
    1467;  1300.1149;            6   
    1468;  1300.9901;           12   
    1469;  1301.8654;           13   
    1470;  1302.7407;           10   
    1471;  1303.6160;           14   
    1472;  1304.4912;           10   
    1473;  1305.3665;            6   
    1474;  1306.2418;           10   
    1475;  1307.1171;           11   
    1476;  1307.9923;           11   
    1477;  1308.8676;           13   
    1478;  1309.7429;           14   
    1479;  1310.6182;            9   
    1480;  1311.4934;           12   
    1481;  1312.3687;           10   
    1482;  1313.2440;            9   
    1483;  1314.1193;           16   
    1484;  1314.9945;           11   
    1485;  1315.8698;           10   
    1486;  1316.7451;           14   
    1487;  1317.6204;           18   
    1488;  1318.4956;            4   
    1489;  1319.3709;            8   
    1490;  1320.2462;            6   
    1491;  1321.1215;            6   
    1492;  1321.9967;            7   
    1493;  1322.8720;           12   
    1494;  1323.7473;            5   
    1495;  1324.6226;            4   
    1496;  1325.4978;           11   
    1497;  1326.3731;            6   
    1498;  1327.2484;            9   
    1499;  1328.1237;            5   
    1500;  1328.9989;            6   
    1501;  1329.8742;            9   
    1502;  1330.7495;           10   
    1503;  1331.6248;            7   
    1504;  1332.5000;            3   
    1505;  1333.3753;            3   
    1506;  1334.2506;           15   
    1507;  1335.1259;            5   
    1508;  1336.0011;           16   
    1509;  1336.8764;            9   
    1510;  1337.7517;           10   
    1511;  1338.6270;            9   
    1512;  1339.5022;            9   
    1513;  1340.3775;            8   
    1514;  1341.2528;            9   
    1515;  1342.1281;            8   
    1516;  1343.0033;           13   
    1517;  1343.8786;            5   
    1518;  1344.7539;            6   
    1519;  1345.6292;            9   
    1520;  1346.5044;            8   
    1521;  1347.3797;            8   
    1522;  1348.2550;            5   
    1523;  1349.1303;            4   
    1524;  1350.0055;            9   
    1525;  1350.8808;            4   
    1526;  1351.7561;            5   
    1527;  1352.6314;            5   
    1528;  1353.5066;            2   
    1529;  1354.3819;            9   
    1530;  1355.2572;            5   
    1531;  1356.1325;            6   
    1532;  1357.0077;           10   
    1533;  1357.8830;            8   
    1534;  1358.7583;            7   
    1535;  1359.6336;            9   
    1536;  1360.5088;            6   
    1537;  1361.3841;            5   
    1538;  1362.2594;            7   
    1539;  1363.1347;            4   
    1540;  1364.0099;            5   
    1541;  1364.8852;            6   
    1542;  1365.7605;           10   
    1543;  1366.6358;            1   
    1544;  1367.5110;            7   
    1545;  1368.3863;           12   
    1546;  1369.2616;            9   
    1547;  1370.1369;           12   
    1548;  1371.0121;            8   
    1549;  1371.8874;            6   
    1550;  1372.7627;            9   
    1551;  1373.6380;            5   
    1552;  1374.5132;            3   
    1553;  1375.3885;            6   
    1554;  1376.2638;            7   
    1555;  1377.1391;            5   
    1556;  1378.0143;           12   
    1557;  1378.8896;            5   
    1558;  1379.7649;            6   
    1559;  1380.6402;            4   
    1560;  1381.5154;            4   
    1561;  1382.3907;            8   
    1562;  1383.2660;            5   
    1563;  1384.1413;            1   
    1564;  1385.0165;            6   
    1565;  1385.8918;            8   
    1566;  1386.7671;            8   
    1567;  1387.6424;            4   
    1568;  1388.5176;            4   
    1569;  1389.3929;            6   
    1570;  1390.2682;            6   
    1571;  1391.1435;            8   
    1572;  1392.0187;            5   
    1573;  1392.8940;            9   
    1574;  1393.7693;           11   
    1575;  1394.6446;            8   
    1576;  1395.5198;           13   
    1577;  1396.3951;           10   
    1578;  1397.2704;           11   
    1579;  1398.1457;           50   
    1580;  1399.0209;          231   
    1581;  1399.8962;          582   
    1582;  1400.7715;          905   
    1583;  1401.6468;          742   
    1584;  1402.5220;          265   
    1585;  1403.3973;           58   
    1586;  1404.2726;           18   
    1587;  1405.1479;            6   
    1588;  1406.0231;           16   
    1589;  1406.8984;            3   
    1590;  1407.7737;            5   
    1591;  1408.6490;           12   
    1592;  1409.5242;            4   
    1593;  1410.3995;            4   
    1594;  1411.2748;            6   
    1595;  1412.1501;            5   
    1596;  1413.0253;            4   
    1597;  1413.9006;            3   
    1598;  1414.7759;            5   
    1599;  1415.6512;            5   
    1600;  1416.5264;            2   
    1601;  1417.4017;            6   
    1602;  1418.2770;            3   
    1603;  1419.1523;            2   
    1604;  1420.0275;            3   
    1605;  1420.9028;            2   
    1606;  1421.7781;            6   
    1607;  1422.6534;            3   
    1608;  1423.5286;            3   
    1609;  1424.4039;            3   
    1610;  1425.2792;            3   
    1611;  1426.1545;            8   
    1612;  1427.0297;            5   
    1613;  1427.9050;            4   
    1614;  1428.7803;            6   
    1615;  1429.6556;            4   
    1616;  1430.5308;            5   
    1617;  1431.4061;            2   
    1618;  1432.2814;            6   
    1619;  1433.1567;            3   
    1620;  1434.0319;            4   
    1621;  1434.9072;            6   
    1622;  1435.7825;            5   
    1623;  1436.6578;            1   
    1624;  1437.5330;            4   
    1625;  1438.4083;            8   
    1626;  1439.2836;            6   
    1627;  1440.1589;            4   
    1628;  1441.0341;            2   
    1629;  1441.9094;            3   
    1630;  1442.7847;            3   
    1631;  1443.6600;            4   
    1632;  1444.5352;            6   
    1633;  1445.4105;            3   
    1634;  1446.2858;            6   
    1635;  1447.1611;            4   
    1636;  1448.0363;            7   
    1637;  1448.9116;           17   
    1638;  1449.7869;           28   
    1639;  1450.6622;           45   
    1640;  1451.5374;           97   
    1641;  1452.4127;          216   
    1642;  1453.2880;          300   
    1643;  1454.1633;          210   
    1644;  1455.0385;           66   
    1645;  1455.9138;           16   
    1646;  1456.7891;            9   
    1647;  1457.6644;            4   
    1648;  1458.5396;            1   
    1649;  1459.4149;            8   
    1650;  1460.2902;            1   
    1651;  1461.1655;            4   
    1652;  1462.0407;            5   
    1653;  1462.9160;            4   
    1654;  1463.7913;            2   
    1655;  1464.6666;            3   
    1656;  1465.5418;            4   
    1657;  1466.4171;            7   
    1658;  1467.2924;            4   
    1659;  1468.1677;            3   
    1660;  1469.0429;            3   
    1661;  1469.9182;            0   
    1662;  1470.7935;            5   
    1663;  1471.6688;            1   
    1664;  1472.5440;            1   
    1665;  1473.4193;            4   
    1666;  1474.2946;            0   
    1667;  1475.1699;            5   
    1668;  1476.0451;            3   
    1669;  1476.9204;            3   
    1670;  1477.7957;            3   
    1671;  1478.6710;            6   
    1672;  1479.5462;            4   
    1673;  1480.4215;            2   
    1674;  1481.2968;            6   
    1675;  1482.1721;            4   
    1676;  1483.0473;            7   
    1677;  1483.9226;            2   
    1678;  1484.7979;            3   
    1679;  1485.6732;            4   
    1680;  1486.5484;            5   
    1681;  1487.4237;            5   
    1682;  1488.2990;            9   
    1683;  1489.1743;            3   
    1684;  1490.0495;            3   
    1685;  1490.9248;            1   
    1686;  1491.8001;            2   
    1687;  1492.6754;            6   
    1688;  1493.5506;            4   
    1689;  1494.4259;            4   
    1690;  1495.3012;            3   
    1691;  1496.1765;            4   
    1692;  1497.0517;            4   
    1693;  1497.9270;            1   
    1694;  1498.8023;            2   
    1695;  1499.6776;            3   
    1696;  1500.5528;            9   
    1697;  1501.4281;            2   
    1698;  1502.3034;            6   
    1699;  1503.1787;            7   
    1700;  1504.0539;            4   
    1701;  1504.9292;            7   
    1702;  1505.8045;            3   
    1703;  1506.6798;            4   
    1704;  1507.5550;            3   
    1705;  1508.4303;            4   
    1706;  1509.3056;            3   
    1707;  1510.1809;            3   
    1708;  1511.0561;            5   
    1709;  1511.9314;            0   
    1710;  1512.8067;            2   
    1711;  1513.6820;            5   
    1712;  1514.5572;            3   
    1713;  1515.4325;            3   
    1714;  1516.3078;            1   
    1715;  1517.1831;            3   
    1716;  1518.0583;            6   
    1717;  1518.9336;           10   
    1718;  1519.8089;           12   
    1719;  1520.6842;           11   
    1720;  1521.5594;            8   
    1721;  1522.4347;            6   
    1722;  1523.3100;            1   
    1723;  1524.1853;            2   
    1724;  1525.0605;            3   
    1725;  1525.9358;            3   
    1726;  1526.8111;            5   
    1727;  1527.6864;            6   
    1728;  1528.5616;            0   
    1729;  1529.4369;            3   
    1730;  1530.3122;            4   
    1731;  1531.1875;            8   
    1732;  1532.0627;            5   
    1733;  1532.9380;            1   
    1734;  1533.8133;            2   
    1735;  1534.6886;            1   
    1736;  1535.5638;            3   
    1737;  1536.4391;            4   
    1738;  1537.3144;            1   
    1739;  1538.1897;            1   
    1740;  1539.0649;            0   
    1741;  1539.9402;            2   
    1742;  1540.8155;            1   
    1743;  1541.6908;            4   
    1744;  1542.5660;            0   
    1745;  1543.4413;            3   
    1746;  1544.3166;            3   
    1747;  1545.1919;            2   
    1748;  1546.0671;            2   
    1749;  1546.9424;            0   
    1750;  1547.8177;            0   
    1751;  1548.6930;            2   
    1752;  1549.5682;            2   
    1753;  1550.4435;            1   
    1754;  1551.3188;            1   
    1755;  1552.1941;            2   
    1756;  1553.0693;            2   
    1757;  1553.9446;            2   
    1758;  1554.8199;            4   
    1759;  1555.6952;            1   
    1760;  1556.5704;            2   
    1761;  1557.4457;            1   
    1762;  1558.3210;            5   
    1763;  1559.1963;            1   
    1764;  1560.0715;            1   
    1765;  1560.9468;            0   
    1766;  1561.8221;            4   
    1767;  1562.6974;            1   
    1768;  1563.5726;            2   
    1769;  1564.4479;            2   
    1770;  1565.3232;            0   
    1771;  1566.1985;            1   
    1772;  1567.0737;            1   
    1773;  1567.9490;            0   
    1774;  1568.8243;            1   
    1775;  1569.6996;            3   
    1776;  1570.5748;            2   
    1777;  1571.4501;            1   
    1778;  1572.3254;            2   
    1779;  1573.2007;            2   
    1780;  1574.0759;            4   
    1781;  1574.9512;            1   
    1782;  1575.8265;            2   
    1783;  1576.7018;            2   
    1784;  1577.5770;            1   
    1785;  1578.4523;            5   
    1786;  1579.3276;            9   
    1787;  1580.2029;            7   
    1788;  1581.0781;            2   
    1789;  1581.9534;            3   
    1790;  1582.8287;            2   
    1791;  1583.7040;            4   
    1792;  1584.5792;            5   
    1793;  1585.4545;            7   
    1794;  1586.3298;            3   
    1795;  1587.2051;            5   
    1796;  1588.0803;            2   
    1797;  1588.9556;            1   
    1798;  1589.8309;            2   
    1799;  1590.7062;            6   
    1800;  1591.5814;            1   
    1801;  1592.4567;            2   
    1802;  1593.3320;            3   
    1803;  1594.2073;            1   
    1804;  1595.0825;            1   
    1805;  1595.9578;            1   
    1806;  1596.8331;            4   
    1807;  1597.7084;            1   
    1808;  1598.5836;            1   
    1809;  1599.4589;            1   
    1810;  1600.3342;            2   
    1811;  1601.2095;            3   
    1812;  1602.0847;            3   
    1813;  1602.9600;            0   
    1814;  1603.8353;            4   
    1815;  1604.7106;            4   
    1816;  1605.5858;            2   
    1817;  1606.4611;            1   
    1818;  1607.3364;            2   
    1819;  1608.2117;            0   
    1820;  1609.0869;            2   
    1821;  1609.9622;            2   
    1822;  1610.8375;            2   
    1823;  1611.7128;            3   
    1824;  1612.5880;            2   
    1825;  1613.4633;            1   
    1826;  1614.3386;            3   
    1827;  1615.2139;            3   
    1828;  1616.0891;            0   
    1829;  1616.9644;            3   
    1830;  1617.8397;            0   
    1831;  1618.7150;            4   
    1832;  1619.5902;            2   
    1833;  1620.4655;            3   
    1834;  1621.3408;            2   
    1835;  1622.2161;            5   
    1836;  1623.0913;            2   
    1837;  1623.9666;            2   
    1838;  1624.8419;            1   
    1839;  1625.7172;            3   
    1840;  1626.5924;            1   
    1841;  1627.4677;            3   
    1842;  1628.3430;            4   
    1843;  1629.2183;            0   
    1844;  1630.0935;            3   
    1845;  1630.9688;            2   
    1846;  1631.8441;            5   
    1847;  1632.7194;            1   
    1848;  1633.5946;            3   
    1849;  1634.4699;            3   
    1850;  1635.3452;            1   
    1851;  1636.2205;            0   
    1852;  1637.0957;            0   
    1853;  1637.9710;            1   
    1854;  1638.8463;            3   
    1855;  1639.7216;            1   
    1856;  1640.5968;            2   
    1857;  1641.4721;            2   
    1858;  1642.3474;            1   
    1859;  1643.2227;            3   
    1860;  1644.0979;            0   
    1861;  1644.9732;            0   
    1862;  1645.8485;            1   
    1863;  1646.7238;            2   
    1864;  1647.5990;            0   
    1865;  1648.4743;            2   
    1866;  1649.3496;            0   
    1867;  1650.2249;            1   
    1868;  1651.1001;            1   
    1869;  1651.9754;            4   
    1870;  1652.8507;            3   
    1871;  1653.7260;            0   
    1872;  1654.6012;            1   
    1873;  1655.4765;            1   
    1874;  1656.3518;            0   
    1875;  1657.2271;            0   
    1876;  1658.1023;            3   
    1877;  1658.9776;            2   
    1878;  1659.8529;            1   
    1879;  1660.7282;            3   
    1880;  1661.6034;            1   
    1881;  1662.4787;            2   
    1882;  1663.3540;            1   
    1883;  1664.2293;            1   
    1884;  1665.1045;            2   
    1885;  1665.9798;            1   
    1886;  1666.8551;            2   
    1887;  1667.7304;            0   
    1888;  1668.6056;            1   
    1889;  1669.4809;            1   
    1890;  1670.3562;            2   
    1891;  1671.2315;            3   
    1892;  1672.1067;            4   
    1893;  1672.9820;            2   
    1894;  1673.8573;            2   
    1895;  1674.7326;            5   
    1896;  1675.6078;            0   
    1897;  1676.4831;            0   
    1898;  1677.3584;            0   
    1899;  1678.2337;            1   
    1900;  1679.1089;            2   
    1901;  1679.9842;            2   
    1902;  1680.8595;            2   
    1903;  1681.7348;            2   
    1904;  1682.6100;            1   
    1905;  1683.4853;            2   
    1906;  1684.3606;            2   
    1907;  1685.2359;            2   
    1908;  1686.1111;            1   
    1909;  1686.9864;            1   
    1910;  1687.8617;            2   
    1911;  1688.7370;            1   
    1912;  1689.6122;            0   
    1913;  1690.4875;            2   
    1914;  1691.3628;            0   
    1915;  1692.2381;            3   
    1916;  1693.1133;            3   
    1917;  1693.9886;            0   
    1918;  1694.8639;            2   
    1919;  1695.7392;            2   
    1920;  1696.6144;            1   
    1921;  1697.4897;            1   
    1922;  1698.3650;            0   
    1923;  1699.2403;            2   
    1924;  1700.1155;            1   
    1925;  1700.9908;            2   
    1926;  1701.8661;            1   
    1927;  1702.7414;            2   
    1928;  1703.6166;            1   
    1929;  1704.4919;            0   
    1930;  1705.3672;            0   
    1931;  1706.2425;            1   
    1932;  1707.1177;            1   
    1933;  1707.9930;            3   
    1934;  1708.8683;            0   
    1935;  1709.7436;            0   
    1936;  1710.6188;            1   
    1937;  1711.4941;            1   
    1938;  1712.3694;            2   
    1939;  1713.2447;            1   
    1940;  1714.1199;            0   
    1941;  1714.9952;            0   
    1942;  1715.8705;            1   
    1943;  1716.7458;            3   
    1944;  1717.6210;            5   
    1945;  1718.4963;            3   
    1946;  1719.3716;            1   
    1947;  1720.2469;            4   
    1948;  1721.1221;            5   
    1949;  1721.9974;            3   
    1950;  1722.8727;            1   
    1951;  1723.7480;            1   
    1952;  1724.6232;            0   
    1953;  1725.4985;            2   
    1954;  1726.3738;            1   
    1955;  1727.2491;            3   
    1956;  1728.1243;            1   
    1957;  1728.9996;            1   
    1958;  1729.8749;            1   
    1959;  1730.7502;            1   
    1960;  1731.6254;            0   
    1961;  1732.5007;            2   
    1962;  1733.3760;            1   
    1963;  1734.2513;            0   
    1964;  1735.1265;            0   
    1965;  1736.0018;            2   
    1966;  1736.8771;            1   
    1967;  1737.7524;            2   
    1968;  1738.6276;            0   
    1969;  1739.5029;            0   
    1970;  1740.3782;            1   
    1971;  1741.2535;            4   
    1972;  1742.1287;            2   
    1973;  1743.0040;            0   
    1974;  1743.8793;            3   
    1975;  1744.7546;            1   
    1976;  1745.6298;            2   
    1977;  1746.5051;            0   
    1978;  1747.3804;            1   
    1979;  1748.2557;            1   
    1980;  1749.1309;            0   
    1981;  1750.0062;            0   
    1982;  1750.8815;            0   
    1983;  1751.7568;            0   
    1984;  1752.6320;            0   
    1985;  1753.5073;            0   
    1986;  1754.3826;            0   
    1987;  1755.2579;            0   
    1988;  1756.1331;            0   
    1989;  1757.0084;            0   
    1990;  1757.8837;            0   
    1991;  1758.7590;            0   
    1992;  1759.6342;            0   
    1993;  1760.5095;            0   
    1994;  1761.3848;            0   
    1995;  1762.2601;            0   
    1996;  1763.1353;            0   
    1997;  1764.0106;            0   
    1998;  1764.8859;            0   
    1999;  1765.7612;            0   
    2000;  1766.6364;            0   
    2001;  1767.5117;            0   
    2002;  1768.3870;            0   
    2003;  1769.2623;            0   
    2004;  1770.1375;            0   
    2005;  1771.0128;            0   
    2006;  1771.8881;            0   
    2007;  1772.7634;            0   
    2008;  1773.6386;            0   
    2009;  1774.5139;            0   
    2010;  1775.3892;            0   
    2011;  1776.2645;            0   
    2012;  1777.1397;            0   
    2013;  1778.0150;            0   
    2014;  1778.8903;            0   
    2015;  1779.7656;            0   
    2016;  1780.6408;            0   
    2017;  1781.5161;            0   
    2018;  1782.3914;            0   
    2019;  1783.2667;            0   
    2020;  1784.1419;            0   
    2021;  1785.0172;            0   
    2022;  1785.8925;            0   
    2023;  1786.7678;            0   
    2024;  1787.6430;            0   
    2025;  1788.5183;            0   
    2026;  1789.3936;            0   
    2027;  1790.2689;            0   
    2028;  1791.1441;            0   
    2029;  1792.0194;            0   
    2030;  1792.8947;            0   
    2031;  1793.7700;            0   
    2032;  1794.6452;            0   
    2033;  1795.5205;            0   
    2034;  1796.3958;            0   
    2035;  1797.2711;            0   
    2036;  1798.1463;            0   
    2037;  1799.0216;            0   
    2038;  1799.8969;            0   
    2039;  1800.7722;            0   
    2040;  1801.6474;            0   
    2041;  1802.5227;            0   
    2042;  1803.3980;            0   
    2043;  1804.2733;            0   
    2044;  1805.1485;            0   
    2045;  1806.0238;            0   
    2046;  1806.8991;            0   
    2047;  1807.7744;            0   
    2048;  1808.6496;            0   
ROI Nummer; Anfangskanal; Endkanal; Anfangsenergie keV ; Endenergie keV; Nettoimpulse; Bruttoimpulse; Untergrundimpulse
In den Daten wurden keine Linien gefunden
ROI Nummer; prozentualer Fehler der Lage; Lage keV; FWHM keV; FWTM keV; FWTM/FWHM Verhltnis; H/L Verhltnis
No Peak records found in data.
Name; Energie keV; Flags; Aktivitt uCi/Unit; Aktivittsfehler %; NWG uCi/Unit; MDA Error %
Es wurden keine Nuklidergebnisse gefunden.
Name; Erwartete Endergie keV; Gemessene Energie keV; Differenz von erwarteter keV; FWHM; Flags; Aktivitt uCi/Unit; Aktivittsfehler %
Es wurden keine Nuklidergebnisse gefunden.
