Kanal;   Energie(keV); Impulse
       1;    16.9617;          950   
       2;    17.8370;          915   
       3;    18.7122;          873   
       4;    19.5875;          892   
       5;    20.4628;          810   
       6;    21.3381;          826   
       7;    22.2133;          780   
       8;    23.0886;          780   
       9;    23.9639;          745   
      10;    24.8392;          715   
      11;    25.7144;          703   
      12;    26.5897;          747   
      13;    27.4650;          650   
      14;    28.3403;          699   
      15;    29.2155;          675   
      16;    30.0908;          663   
      17;    30.9661;          660   
      18;    31.8414;          661   
      19;    32.7166;          684   
      20;    33.5919;          716   
      21;    34.4672;          658   
      22;    35.3425;          678   
      23;    36.2177;          606   
      24;    37.0930;          655   
      25;    37.9683;          636   
      26;    38.8436;          604   
      27;    39.7188;          646   
      28;    40.5941;          607   
      29;    41.4694;          691   
      30;    42.3447;          700   
      31;    43.2199;          657   
      32;    44.0952;          631   
      33;    44.9705;          563   
      34;    45.8458;          602   
      35;    46.7210;          592   
      36;    47.5963;          630   
      37;    48.4716;          642   
      38;    49.3469;          600   
      39;    50.2221;          567   
      40;    51.0974;          563   
      41;    51.9727;          538   
      42;    52.8480;          543   
      43;    53.7232;          492   
      44;    54.5985;          535   
      45;    55.4738;          528   
      46;    56.3491;          529   
      47;    57.2243;          543   
      48;    58.0996;          527   
      49;    58.9749;          526   
      50;    59.8502;          507   
      51;    60.7254;          532   
      52;    61.6007;          524   
      53;    62.4760;          541   
      54;    63.3513;          554   
      55;    64.2265;          543   
      56;    65.1018;          589   
      57;    65.9771;          592   
      58;    66.8524;          572   
      59;    67.7276;          634   
      60;    68.6029;          607   
      61;    69.4782;          633   
      62;    70.3535;          577   
      63;    71.2287;          661   
      64;    72.1040;          633   
      65;    72.9793;          664   
      66;    73.8546;          781   
      67;    74.7298;         1039   
      68;    75.6051;         1428   
      69;    76.4804;         1251   
      70;    77.3557;         1795   
      71;    78.2309;         1808   
      72;    79.1062;          921   
      73;    79.9815;          707   
      74;    80.8568;          706   
      75;    81.7320;          721   
      76;    82.6073;          764   
      77;    83.4826;          812   
      78;    84.3579;          759   
      79;    85.2331;          884   
      80;    86.1084;         1078   
      81;    86.9837;         1431   
      82;    87.8590;         1603   
      83;    88.7342;         1208   
      84;    89.6095;         1010   
      85;    90.4848;         1126   
      86;    91.3601;         1041   
      87;    92.2353;          930   
      88;    93.1106;          954   
      89;    93.9859;          881   
      90;    94.8612;          892   
      91;    95.7364;          856   
      92;    96.6117;          907   
      93;    97.4870;          911   
      94;    98.3623;          894   
      95;    99.2375;          865   
      96;   100.1128;          958   
      97;   100.9881;          866   
      98;   101.8634;          941   
      99;   102.7386;          957   
     100;   103.6139;          941   
     101;   104.4892;          924   
     102;   105.3645;          961   
     103;   106.2397;          916   
     104;   107.1150;          991   
     105;   107.9903;          975   
     106;   108.8656;         1015   
     107;   109.7408;          966   
     108;   110.6161;          968   
     109;   111.4914;          993   
     110;   112.3667;         1059   
     111;   113.2419;         1022   
     112;   114.1172;         1082   
     113;   114.9925;         1002   
     114;   115.8678;          967   
     115;   116.7430;         1017   
     116;   117.6183;         1056   
     117;   118.4936;         1006   
     118;   119.3689;          980   
     119;   120.2441;         1054   
     120;   121.1194;          966   
     121;   121.9947;          947   
     122;   122.8700;         1099   
     123;   123.7452;         3404   
     124;   124.6205;         9966   
     125;   125.4958;         7927   
     126;   126.3711;         2011   
     127;   127.2463;          862   
     128;   128.1216;          800   
     129;   128.9969;          761   
     130;   129.8722;          790   
     131;   130.7474;          798   
     132;   131.6227;          740   
     133;   132.4980;          851   
     134;   133.3733;          806   
     135;   134.2485;          802   
     136;   135.1238;          789   
     137;   135.9991;          799   
     138;   136.8744;          765   
     139;   137.7496;          742   
     140;   138.6249;          809   
     141;   139.5002;          767   
     142;   140.3755;          754   
     143;   141.2507;          731   
     144;   142.1260;          771   
     145;   143.0013;          781   
     146;   143.8766;          758   
     147;   144.7518;          821   
     148;   145.6271;          812   
     149;   146.5024;          760   
     150;   147.3777;          757   
     151;   148.2529;          750   
     152;   149.1282;          782   
     153;   150.0035;          771   
     154;   150.8788;          817   
     155;   151.7540;          822   
     156;   152.6293;          776   
     157;   153.5046;          804   
     158;   154.3799;          773   
     159;   155.2551;          787   
     160;   156.1304;          751   
     161;   157.0057;          718   
     162;   157.8810;          815   
     163;   158.7562;          759   
     164;   159.6315;          744   
     165;   160.5068;          730   
     166;   161.3821;          772   
     167;   162.2573;          747   
     168;   163.1326;          763   
     169;   164.0079;          730   
     170;   164.8832;          755   
     171;   165.7584;          769   
     172;   166.6337;          753   
     173;   167.5090;          719   
     174;   168.3843;          668   
     175;   169.2595;          724   
     176;   170.1348;          712   
     177;   171.0101;          688   
     178;   171.8854;          726   
     179;   172.7606;          714   
     180;   173.6359;          667   
     181;   174.5112;          715   
     182;   175.3865;          749   
     183;   176.2617;          690   
     184;   177.1370;          701   
     185;   178.0123;          719   
     186;   178.8876;          674   
     187;   179.7628;          686   
     188;   180.6381;          659   
     189;   181.5134;          714   
     190;   182.3887;          693   
     191;   183.2639;          734   
     192;   184.1392;          699   
     193;   185.0145;          715   
     194;   185.8898;          645   
     195;   186.7650;          697   
     196;   187.6403;          695   
     197;   188.5156;          685   
     198;   189.3909;          735   
     199;   190.2661;          754   
     200;   191.1414;          719   
     201;   192.0167;          714   
     202;   192.8920;          735   
     203;   193.7672;          780   
     204;   194.6425;          733   
     205;   195.5178;          771   
     206;   196.3931;          696   
     207;   197.2683;          712   
     208;   198.1436;          715   
     209;   199.0189;          706   
     210;   199.8942;          697   
     211;   200.7694;          689   
     212;   201.6447;          698   
     213;   202.5200;          691   
     214;   203.3953;          654   
     215;   204.2705;          663   
     216;   205.1458;          691   
     217;   206.0211;          628   
     218;   206.8964;          650   
     219;   207.7716;          656   
     220;   208.6469;          648   
     221;   209.5222;          628   
     222;   210.3975;          641   
     223;   211.2727;          609   
     224;   212.1480;          617   
     225;   213.0233;          637   
     226;   213.8986;          616   
     227;   214.7738;          584   
     228;   215.6491;          620   
     229;   216.5244;          653   
     230;   217.3997;          649   
     231;   218.2749;          598   
     232;   219.1502;          595   
     233;   220.0255;          602   
     234;   220.9008;          598   
     235;   221.7760;          592   
     236;   222.6513;          588   
     237;   223.5266;          541   
     238;   224.4019;          605   
     239;   225.2771;          580   
     240;   226.1524;          591   
     241;   227.0277;          598   
     242;   227.9030;          531   
     243;   228.7782;          534   
     244;   229.6535;          563   
     245;   230.5288;          512   
     246;   231.4041;          534   
     247;   232.2793;          510   
     248;   233.1546;          548   
     249;   234.0299;          515   
     250;   234.9052;          504   
     251;   235.7804;          501   
     252;   236.6557;          464   
     253;   237.5310;          485   
     254;   238.4063;          497   
     255;   239.2815;          533   
     256;   240.1568;          523   
     257;   241.0321;          498   
     258;   241.9074;          569   
     259;   242.7826;          571   
     260;   243.6579;          537   
     261;   244.5332;          438   
     262;   245.4085;          482   
     263;   246.2837;          519   
     264;   247.1590;          590   
     265;   248.0343;         1620   
     266;   248.9096;         2555   
     267;   249.7848;         1302   
     268;   250.6601;          567   
     269;   251.5354;          494   
     270;   252.4107;          432   
     271;   253.2859;          440   
     272;   254.1612;          429   
     273;   255.0365;          430   
     274;   255.9118;          468   
     275;   256.7870;          427   
     276;   257.6623;          451   
     277;   258.5376;          466   
     278;   259.4129;          424   
     279;   260.2881;          407   
     280;   261.1634;          423   
     281;   262.0387;          440   
     282;   262.9140;          396   
     283;   263.7892;          433   
     284;   264.6645;          390   
     285;   265.5398;          423   
     286;   266.4151;          399   
     287;   267.2903;          376   
     288;   268.1656;          379   
     289;   269.0409;          379   
     290;   269.9162;          408   
     291;   270.7914;          379   
     292;   271.6667;          398   
     293;   272.5420;          402   
     294;   273.4173;          393   
     295;   274.2925;          453   
     296;   275.1678;          430   
     297;   276.0431;          373   
     298;   276.9184;          365   
     299;   277.7936;          360   
     300;   278.6689;          373   
     301;   279.5442;          388   
     302;   280.4195;          378   
     303;   281.2947;          385   
     304;   282.1700;          371   
     305;   283.0453;          361   
     306;   283.9206;          341   
     307;   284.7958;          359   
     308;   285.6711;          407   
     309;   286.5464;          375   
     310;   287.4217;          342   
     311;   288.2969;          359   
     312;   289.1722;          366   
     313;   290.0475;          323   
     314;   290.9228;          370   
     315;   291.7980;          354   
     316;   292.6733;          355   
     317;   293.5486;          359   
     318;   294.4239;          314   
     319;   295.2991;          340   
     320;   296.1744;          339   
     321;   297.0497;          316   
     322;   297.9250;          349   
     323;   298.8002;          366   
     324;   299.6755;          410   
     325;   300.5508;          474   
     326;   301.4261;          407   
     327;   302.3013;          351   
     328;   303.1766;          312   
     329;   304.0519;          303   
     330;   304.9272;          324   
     331;   305.8024;          309   
     332;   306.6777;          337   
     333;   307.5530;          302   
     334;   308.4283;          315   
     335;   309.3035;          347   
     336;   310.1788;          308   
     337;   311.0541;          322   
     338;   311.9294;          292   
     339;   312.8046;          301   
     340;   313.6799;          319   
     341;   314.5552;          305   
     342;   315.4305;          313   
     343;   316.3057;          303   
     344;   317.1810;          281   
     345;   318.0563;          296   
     346;   318.9316;          270   
     347;   319.8068;          299   
     348;   320.6821;          301   
     349;   321.5574;          297   
     350;   322.4327;          322   
     351;   323.3079;          319   
     352;   324.1832;          275   
     353;   325.0585;          303   
     354;   325.9338;          313   
     355;   326.8090;          342   
     356;   327.6843;          307   
     357;   328.5596;          296   
     358;   329.4349;          282   
     359;   330.3101;          330   
     360;   331.1854;          303   
     361;   332.0607;          285   
     362;   332.9360;          258   
     363;   333.8112;          294   
     364;   334.6865;          297   
     365;   335.5618;          312   
     366;   336.4371;          296   
     367;   337.3123;          295   
     368;   338.1876;          285   
     369;   339.0629;          296   
     370;   339.9382;          294   
     371;   340.8134;          273   
     372;   341.6887;          286   
     373;   342.5640;          324   
     374;   343.4393;          318   
     375;   344.3145;          285   
     376;   345.1898;          279   
     377;   346.0651;          321   
     378;   346.9404;          329   
     379;   347.8156;         1131   
     380;   348.6909;         4590   
     381;   349.5662;         5043   
     382;   350.4415;         1741   
     383;   351.3167;          389   
     384;   352.1920;          290   
     385;   353.0673;          286   
     386;   353.9426;          280   
     387;   354.8178;          252   
     388;   355.6931;          272   
     389;   356.5684;          300   
     390;   357.4437;          297   
     391;   358.3189;          255   
     392;   359.1942;          244   
     393;   360.0695;          254   
     394;   360.9448;          244   
     395;   361.8200;          249   
     396;   362.6953;          249   
     397;   363.5706;          266   
     398;   364.4459;          248   
     399;   365.3211;          248   
     400;   366.1964;          245   
     401;   367.0717;          246   
     402;   367.9470;          266   
     403;   368.8222;          221   
     404;   369.6975;          266   
     405;   370.5728;          272   
     406;   371.4481;          283   
     407;   372.3233;          373   
     408;   373.1986;          388   
     409;   374.0739;          306   
     410;   374.9492;          268   
     411;   375.8244;          296   
     412;   376.6997;          248   
     413;   377.5750;          271   
     414;   378.4503;          243   
     415;   379.3255;          246   
     416;   380.2008;          257   
     417;   381.0761;          248   
     418;   381.9514;          270   
     419;   382.8266;          230   
     420;   383.7019;          231   
     421;   384.5772;          248   
     422;   385.4525;          236   
     423;   386.3277;          233   
     424;   387.2030;          214   
     425;   388.0783;          224   
     426;   388.9536;          248   
     427;   389.8288;          250   
     428;   390.7041;          249   
     429;   391.5794;          241   
     430;   392.4547;          264   
     431;   393.3299;          229   
     432;   394.2052;          274   
     433;   395.0805;          221   
     434;   395.9558;          248   
     435;   396.8310;          226   
     436;   397.7063;          249   
     437;   398.5816;          255   
     438;   399.4569;          252   
     439;   400.3321;          235   
     440;   401.2074;          238   
     441;   402.0827;          244   
     442;   402.9580;          221   
     443;   403.8332;          248   
     444;   404.7085;          209   
     445;   405.5838;          226   
     446;   406.4591;          237   
     447;   407.3343;          247   
     448;   408.2096;          241   
     449;   409.0849;          222   
     450;   409.9602;          228   
     451;   410.8354;          255   
     452;   411.7107;          258   
     453;   412.5860;          243   
     454;   413.4613;          237   
     455;   414.3365;          230   
     456;   415.2118;          312   
     457;   416.0871;          536   
     458;   416.9624;          563   
     459;   417.8376;          357   
     460;   418.7129;          246   
     461;   419.5882;          231   
     462;   420.4635;          239   
     463;   421.3387;          284   
     464;   422.2140;          238   
     465;   423.0893;          230   
     466;   423.9646;          244   
     467;   424.8398;          215   
     468;   425.7151;          215   
     469;   426.5904;          218   
     470;   427.4657;          229   
     471;   428.3409;          242   
     472;   429.2162;          221   
     473;   430.0915;          222   
     474;   430.9668;          231   
     475;   431.8420;          276   
     476;   432.7173;          252   
     477;   433.5926;          211   
     478;   434.4679;          212   
     479;   435.3431;          236   
     480;   436.2184;          220   
     481;   437.0937;          210   
     482;   437.9690;          238   
     483;   438.8442;          243   
     484;   439.7195;          237   
     485;   440.5948;          238   
     486;   441.4701;          257   
     487;   442.3453;          230   
     488;   443.2206;          233   
     489;   444.0959;          249   
     490;   444.9712;          242   
     491;   445.8464;          256   
     492;   446.7217;          256   
     493;   447.5970;          253   
     494;   448.4723;          353   
     495;   449.3475;          709   
     496;   450.2228;          687   
     497;   451.0981;          364   
     498;   451.9734;          255   
     499;   452.8486;          242   
     500;   453.7239;          257   
     501;   454.5992;          267   
     502;   455.4745;          264   
     503;   456.3497;          261   
     504;   457.2250;          229   
     505;   458.1003;          258   
     506;   458.9756;          232   
     507;   459.8508;          252   
     508;   460.7261;          250   
     509;   461.6014;          235   
     510;   462.4767;          239   
     511;   463.3519;          234   
     512;   464.2272;          236   
     513;   465.1025;          265   
     514;   465.9778;          236   
     515;   466.8530;          266   
     516;   467.7283;          251   
     517;   468.6036;          241   
     518;   469.4789;          269   
     519;   470.3541;          239   
     520;   471.2294;          247   
     521;   472.1047;          246   
     522;   472.9800;          260   
     523;   473.8552;          228   
     524;   474.7305;          235   
     525;   475.6058;          211   
     526;   476.4811;          247   
     527;   477.3563;          250   
     528;   478.2316;          215   
     529;   479.1069;          236   
     530;   479.9822;          227   
     531;   480.8574;          240   
     532;   481.7327;          219   
     533;   482.6080;          245   
     534;   483.4833;          208   
     535;   484.3585;          230   
     536;   485.2338;          203   
     537;   486.1091;          211   
     538;   486.9844;          200   
     539;   487.8596;          219   
     540;   488.7349;          195   
     541;   489.6102;          197   
     542;   490.4855;          209   
     543;   491.3607;          209   
     544;   492.2360;          206   
     545;   493.1113;          200   
     546;   493.9866;          231   
     547;   494.8618;          234   
     548;   495.7371;          221   
     549;   496.6124;          191   
     550;   497.4877;          164   
     551;   498.3629;          152   
     552;   499.2382;          182   
     553;   500.1135;          191   
     554;   500.9888;          176   
     555;   501.8640;          202   
     556;   502.7393;          159   
     557;   503.6146;          165   
     558;   504.4899;          177   
     559;   505.3651;          166   
     560;   506.2404;          196   
     561;   507.1157;          161   
     562;   507.9910;          196   
     563;   508.8662;          184   
     564;   509.7415;          164   
     565;   510.6168;          173   
     566;   511.4921;          177   
     567;   512.3673;          169   
     568;   513.2426;          151   
     569;   514.1179;          181   
     570;   514.9932;          181   
     571;   515.8684;          184   
     572;   516.7437;          180   
     573;   517.6190;          215   
     574;   518.4943;          171   
     575;   519.3695;          158   
     576;   520.2448;          170   
     577;   521.1201;          167   
     578;   521.9954;          156   
     579;   522.8706;          145   
     580;   523.7459;          142   
     581;   524.6212;          154   
     582;   525.4965;          180   
     583;   526.3717;          161   
     584;   527.2470;          135   
     585;   528.1223;          161   
     586;   528.9976;          145   
     587;   529.8728;          132   
     588;   530.7481;          148   
     589;   531.6234;          123   
     590;   532.4987;          150   
     591;   533.3739;          150   
     592;   534.2492;          162   
     593;   535.1245;          139   
     594;   535.9998;          126   
     595;   536.8750;          141   
     596;   537.7503;          130   
     597;   538.6256;          125   
     598;   539.5009;          136   
     599;   540.3761;          115   
     600;   541.2514;          124   
     601;   542.1267;          143   
     602;   543.0020;          127   
     603;   543.8772;          136   
     604;   544.7525;          130   
     605;   545.6278;          120   
     606;   546.5031;          135   
     607;   547.3783;          133   
     608;   548.2536;          127   
     609;   549.1289;          126   
     610;   550.0042;          121   
     611;   550.8794;          135   
     612;   551.7547;          108   
     613;   552.6300;          122   
     614;   553.5053;          126   
     615;   554.3805;          117   
     616;   555.2558;          126   
     617;   556.1311;          137   
     618;   557.0064;          105   
     619;   557.8816;          121   
     620;   558.7569;          135   
     621;   559.6322;          130   
     622;   560.5075;          108   
     623;   561.3827;          111   
     624;   562.2580;          124   
     625;   563.1333;          129   
     626;   564.0086;          135   
     627;   564.8838;          115   
     628;   565.7591;          136   
     629;   566.6344;           96   
     630;   567.5097;          146   
     631;   568.3849;          122   
     632;   569.2602;          124   
     633;   570.1355;          163   
     634;   571.0108;          182   
     635;   571.8860;          151   
     636;   572.7613;          118   
     637;   573.6366;          154   
     638;   574.5119;          119   
     639;   575.3871;           95   
     640;   576.2624;          120   
     641;   577.1377;          119   
     642;   578.0130;          116   
     643;   578.8882;          113   
     644;   579.7635;          101   
     645;   580.6388;          128   
     646;   581.5141;          113   
     647;   582.3893;          117   
     648;   583.2646;          122   
     649;   584.1399;          110   
     650;   585.0152;          102   
     651;   585.8904;          103   
     652;   586.7657;           98   
     653;   587.6410;          117   
     654;   588.5163;          143   
     655;   589.3915;          128   
     656;   590.2668;          165   
     657;   591.1421;          137   
     658;   592.0174;          132   
     659;   592.8926;          143   
     660;   593.7679;          156   
     661;   594.6432;          135   
     662;   595.5185;           99   
     663;   596.3937;          105   
     664;   597.2690;          100   
     665;   598.1443;           93   
     666;   599.0196;           91   
     667;   599.8948;          120   
     668;   600.7701;           93   
     669;   601.6454;           94   
     670;   602.5207;           88   
     671;   603.3959;           91   
     672;   604.2712;           95   
     673;   605.1465;           89   
     674;   606.0218;           88   
     675;   606.8970;          103   
     676;   607.7723;           97   
     677;   608.6476;           90   
     678;   609.5229;          102   
     679;   610.3981;          104   
     680;   611.2734;           88   
     681;   612.1487;          102   
     682;   613.0240;           92   
     683;   613.8992;           97   
     684;   614.7745;          100   
     685;   615.6498;          129   
     686;   616.5251;          138   
     687;   617.4003;          107   
     688;   618.2756;           87   
     689;   619.1509;           97   
     690;   620.0262;          109   
     691;   620.9014;           69   
     692;   621.7767;           93   
     693;   622.6520;           98   
     694;   623.5273;           93   
     695;   624.4025;           92   
     696;   625.2778;           80   
     697;   626.1531;           88   
     698;   627.0284;           91   
     699;   627.9036;           87   
     700;   628.7789;           78   
     701;   629.6542;           88   
     702;   630.5295;           97   
     703;   631.4047;           77   
     704;   632.2800;           91   
     705;   633.1553;          109   
     706;   634.0306;          103   
     707;   634.9058;           89   
     708;   635.7811;           85   
     709;   636.6564;           86   
     710;   637.5317;           83   
     711;   638.4069;           79   
     712;   639.2822;           89   
     713;   640.1575;           84   
     714;   641.0328;           84   
     715;   641.9080;           88   
     716;   642.7833;           83   
     717;   643.6586;           88   
     718;   644.5339;           80   
     719;   645.4091;           77   
     720;   646.2844;           93   
     721;   647.1597;           81   
     722;   648.0350;           95   
     723;   648.9102;           75   
     724;   649.7855;           97   
     725;   650.6608;           80   
     726;   651.5361;           91   
     727;   652.4113;           83   
     728;   653.2866;           78   
     729;   654.1619;           93   
     730;   655.0372;           73   
     731;   655.9124;           76   
     732;   656.7877;           86   
     733;   657.6630;           68   
     734;   658.5383;          102   
     735;   659.4135;           72   
     736;   660.2888;           90   
     737;   661.1641;           82   
     738;   662.0394;           75   
     739;   662.9146;           89   
     740;   663.7899;          101   
     741;   664.6652;           99   
     742;   665.5405;           92   
     743;   666.4157;          130   
     744;   667.2910;          689   
     745;   668.1663;         3663   
     746;   669.0416;         7607   
     747;   669.9168;         5342   
     748;   670.7921;         1290   
     749;   671.6674;          230   
     750;   672.5427;          106   
     751;   673.4179;           82   
     752;   674.2932;           88   
     753;   675.1685;           83   
     754;   676.0438;           75   
     755;   676.9190;           58   
     756;   677.7943;           81   
     757;   678.6696;           79   
     758;   679.5449;           74   
     759;   680.4201;           78   
     760;   681.2954;           82   
     761;   682.1707;           83   
     762;   683.0460;           90   
     763;   683.9212;           67   
     764;   684.7965;           86   
     765;   685.6718;           98   
     766;   686.5471;          107   
     767;   687.4223;           84   
     768;   688.2976;           89   
     769;   689.1729;           76   
     770;   690.0482;           69   
     771;   690.9234;           87   
     772;   691.7987;           76   
     773;   692.6740;           62   
     774;   693.5493;           69   
     775;   694.4245;           82   
     776;   695.2998;          127   
     777;   696.1751;          158   
     778;   697.0504;          154   
     779;   697.9256;           93   
     780;   698.8009;           77   
     781;   699.6762;           68   
     782;   700.5515;           76   
     783;   701.4267;           72   
     784;   702.3020;           78   
     785;   703.1773;           78   
     786;   704.0526;           71   
     787;   704.9278;           63   
     788;   705.8031;           73   
     789;   706.6784;           80   
     790;   707.5537;           61   
     791;   708.4289;           62   
     792;   709.3042;           76   
     793;   710.1795;           81   
     794;   711.0548;           65   
     795;   711.9300;           65   
     796;   712.8053;           68   
     797;   713.6806;           75   
     798;   714.5559;           71   
     799;   715.4311;           82   
     800;   716.3064;           61   
     801;   717.1817;           78   
     802;   718.0570;           63   
     803;   718.9322;           71   
     804;   719.8075;           79   
     805;   720.6828;           74   
     806;   721.5581;           69   
     807;   722.4333;           65   
     808;   723.3086;           77   
     809;   724.1839;           70   
     810;   725.0592;           70   
     811;   725.9344;           88   
     812;   726.8097;          102   
     813;   727.6850;           80   
     814;   728.5603;           74   
     815;   729.4355;           60   
     816;   730.3108;           64   
     817;   731.1861;           76   
     818;   732.0614;           70   
     819;   732.9366;           66   
     820;   733.8119;           66   
     821;   734.6872;           76   
     822;   735.5625;           92   
     823;   736.4377;           80   
     824;   737.3130;           66   
     825;   738.1883;           65   
     826;   739.0636;           84   
     827;   739.9388;           67   
     828;   740.8141;           61   
     829;   741.6894;           82   
     830;   742.5647;           67   
     831;   743.4399;           64   
     832;   744.3152;           73   
     833;   745.1905;           74   
     834;   746.0658;           68   
     835;   746.9410;           64   
     836;   747.8163;           60   
     837;   748.6916;           55   
     838;   749.5669;           79   
     839;   750.4421;           58   
     840;   751.3174;           99   
     841;   752.1927;           67   
     842;   753.0680;           61   
     843;   753.9432;           82   
     844;   754.8185;           74   
     845;   755.6938;           65   
     846;   756.5691;           70   
     847;   757.4443;           68   
     848;   758.3196;           69   
     849;   759.1949;           67   
     850;   760.0702;           75   
     851;   760.9454;           61   
     852;   761.8207;           65   
     853;   762.6960;           71   
     854;   763.5713;           68   
     855;   764.4465;           80   
     856;   765.3218;           71   
     857;   766.1971;           59   
     858;   767.0724;           87   
     859;   767.9476;           64   
     860;   768.8229;           75   
     861;   769.6982;           67   
     862;   770.5735;           71   
     863;   771.4487;           81   
     864;   772.3240;           90   
     865;   773.1993;           81   
     866;   774.0746;           67   
     867;   774.9498;           78   
     868;   775.8251;           71   
     869;   776.7004;           91   
     870;   777.5757;           64   
     871;   778.4509;           54   
     872;   779.3262;           56   
     873;   780.2015;           66   
     874;   781.0768;           65   
     875;   781.9520;           64   
     876;   782.8273;           59   
     877;   783.7026;           54   
     878;   784.5779;           74   
     879;   785.4531;          156   
     880;   786.3284;          629   
     881;   787.2037;         1218   
     882;   788.0790;          783   
     883;   788.9542;          272   
     884;   789.8295;           74   
     885;   790.7048;           65   
     886;   791.5801;           55   
     887;   792.4553;           58   
     888;   793.3306;           46   
     889;   794.2059;           53   
     890;   795.0812;           59   
     891;   795.9564;           52   
     892;   796.8317;           67   
     893;   797.7070;           55   
     894;   798.5823;           66   
     895;   799.4575;           52   
     896;   800.3328;           54   
     897;   801.2081;           50   
     898;   802.0834;           66   
     899;   802.9586;           74   
     900;   803.8339;           74   
     901;   804.7092;           50   
     902;   805.5845;           54   
     903;   806.4597;           53   
     904;   807.3350;           77   
     905;   808.2103;           50   
     906;   809.0856;           62   
     907;   809.9608;           52   
     908;   810.8361;           55   
     909;   811.7114;           56   
     910;   812.5867;           70   
     911;   813.4619;           55   
     912;   814.3372;           50   
     913;   815.2125;           62   
     914;   816.0878;           50   
     915;   816.9631;           60   
     916;   817.8383;           58   
     917;   818.7136;           98   
     918;   819.5889;           75   
     919;   820.4642;           76   
     920;   821.3394;           57   
     921;   822.2147;           59   
     922;   823.0900;           56   
     923;   823.9653;           56   
     924;   824.8405;           55   
     925;   825.7158;           52   
     926;   826.5911;           49   
     927;   827.4664;           62   
     928;   828.3416;           59   
     929;   829.2169;           72   
     930;   830.0922;           72   
     931;   830.9675;           59   
     932;   831.8427;           41   
     933;   832.7180;           50   
     934;   833.5933;           54   
     935;   834.4686;           52   
     936;   835.3438;           49   
     937;   836.2191;           62   
     938;   837.0944;           47   
     939;   837.9697;           58   
     940;   838.8449;           78   
     941;   839.7202;           57   
     942;   840.5955;           50   
     943;   841.4708;           58   
     944;   842.3460;           52   
     945;   843.2213;           53   
     946;   844.0966;           49   
     947;   844.9719;           70   
     948;   845.8471;           49   
     949;   846.7224;           64   
     950;   847.5977;           58   
     951;   848.4730;           68   
     952;   849.3482;           72   
     953;   850.2235;           70   
     954;   851.0988;           71   
     955;   851.9741;           79   
     956;   852.8493;           60   
     957;   853.7246;           54   
     958;   854.5999;           59   
     959;   855.4752;           52   
     960;   856.3504;           44   
     961;   857.2257;           49   
     962;   858.1010;           60   
     963;   858.9763;           58   
     964;   859.8515;           51   
     965;   860.7268;           72   
     966;   861.6021;           56   
     967;   862.4774;           55   
     968;   863.3526;           58   
     969;   864.2279;           59   
     970;   865.1032;           63   
     971;   865.9785;           58   
     972;   866.8537;           56   
     973;   867.7290;           55   
     974;   868.6043;           57   
     975;   869.4796;           72   
     976;   870.3548;           74   
     977;   871.2301;           47   
     978;   872.1054;           60   
     979;   872.9807;           64   
     980;   873.8559;           73   
     981;   874.7312;           92   
     982;   875.6065;          265   
     983;   876.4818;          368   
     984;   877.3570;          280   
     985;   878.2323;           92   
     986;   879.1076;           61   
     987;   879.9829;           48   
     988;   880.8581;           58   
     989;   881.7334;           67   
     990;   882.6087;           57   
     991;   883.4840;           57   
     992;   884.3592;           46   
     993;   885.2345;           68   
     994;   886.1098;           52   
     995;   886.9851;           57   
     996;   887.8603;           56   
     997;   888.7356;           51   
     998;   889.6109;           52   
     999;   890.4862;           48   
    1000;   891.3614;           60   
    1001;   892.2367;           48   
    1002;   893.1120;           62   
    1003;   893.9873;           47   
    1004;   894.8625;           54   
    1005;   895.7378;           47   
    1006;   896.6131;           58   
    1007;   897.4884;           49   
    1008;   898.3636;           56   
    1009;   899.2389;           60   
    1010;   900.1142;           57   
    1011;   900.9895;           62   
    1012;   901.8647;           41   
    1013;   902.7400;           41   
    1014;   903.6153;           56   
    1015;   904.4906;           65   
    1016;   905.3658;           47   
    1017;   906.2411;           51   
    1018;   907.1164;           68   
    1019;   907.9917;           49   
    1020;   908.8669;           48   
    1021;   909.7422;           61   
    1022;   910.6175;           70   
    1023;   911.4928;           51   
    1024;   912.3680;           41   
    1025;   913.2433;           47   
    1026;   914.1186;           43   
    1027;   914.9939;           42   
    1028;   915.8691;           51   
    1029;   916.7444;           59   
    1030;   917.6197;           42   
    1031;   918.4950;           47   
    1032;   919.3702;           69   
    1033;   920.2455;           88   
    1034;   921.1208;           87   
    1035;   921.9961;           52   
    1036;   922.8713;           61   
    1037;   923.7466;           41   
    1038;   924.6219;           48   
    1039;   925.4972;           45   
    1040;   926.3724;           41   
    1041;   927.2477;           40   
    1042;   928.1230;           65   
    1043;   928.9983;           59   
    1044;   929.8735;           49   
    1045;   930.7488;           42   
    1046;   931.6241;           44   
    1047;   932.4994;           54   
    1048;   933.3746;           33   
    1049;   934.2499;           40   
    1050;   935.1252;           64   
    1051;   936.0005;           46   
    1052;   936.8757;           49   
    1053;   937.7510;           42   
    1054;   938.6263;           50   
    1055;   939.5016;           48   
    1056;   940.3768;           55   
    1057;   941.2521;           39   
    1058;   942.1274;           42   
    1059;   943.0027;           31   
    1060;   943.8779;           35   
    1061;   944.7532;           42   
    1062;   945.6285;           38   
    1063;   946.5038;           33   
    1064;   947.3790;           50   
    1065;   948.2543;           46   
    1066;   949.1296;           37   
    1067;   950.0049;           43   
    1068;   950.8801;           32   
    1069;   951.7554;           41   
    1070;   952.6307;           46   
    1071;   953.5060;           35   
    1072;   954.3812;           45   
    1073;   955.2565;           26   
    1074;   956.1318;           31   
    1075;   957.0071;           38   
    1076;   957.8823;           35   
    1077;   958.7576;           36   
    1078;   959.6329;           38   
    1079;   960.5082;           37   
    1080;   961.3834;           37   
    1081;   962.2587;           29   
    1082;   963.1340;           32   
    1083;   964.0093;           37   
    1084;   964.8845;           50   
    1085;   965.7598;           32   
    1086;   966.6351;           28   
    1087;   967.5104;           40   
    1088;   968.3856;           33   
    1089;   969.2609;           40   
    1090;   970.1362;           31   
    1091;   971.0115;           50   
    1092;   971.8867;          134   
    1093;   972.7620;          547   
    1094;   973.6373;         1054   
    1095;   974.5126;          852   
    1096;   975.3878;          250   
    1097;   976.2631;           82   
    1098;   977.1384;           55   
    1099;   978.0137;           54   
    1100;   978.8889;           71   
    1101;   979.7642;           50   
    1102;   980.6395;           40   
    1103;   981.5148;           37   
    1104;   982.3900;           26   
    1105;   983.2653;           27   
    1106;   984.1406;           33   
    1107;   985.0159;           29   
    1108;   985.8911;           26   
    1109;   986.7664;           36   
    1110;   987.6417;           27   
    1111;   988.5170;           28   
    1112;   989.3922;           28   
    1113;   990.2675;           38   
    1114;   991.1428;           23   
    1115;   992.0181;           30   
    1116;   992.8933;           32   
    1117;   993.7686;           22   
    1118;   994.6439;           43   
    1119;   995.5192;           27   
    1120;   996.3944;           25   
    1121;   997.2697;           29   
    1122;   998.1450;           23   
    1123;   999.0203;           39   
    1124;   999.8955;           30   
    1125;  1000.7708;           37   
    1126;  1001.6461;           29   
    1127;  1002.5214;           22   
    1128;  1003.3966;           20   
    1129;  1004.2719;           41   
    1130;  1005.1472;           30   
    1131;  1006.0225;           26   
    1132;  1006.8977;           39   
    1133;  1007.7730;           27   
    1134;  1008.6483;           29   
    1135;  1009.5236;           28   
    1136;  1010.3988;           34   
    1137;  1011.2741;           36   
    1138;  1012.1494;           24   
    1139;  1013.0247;           46   
    1140;  1013.8999;           46   
    1141;  1014.7752;           87   
    1142;  1015.6505;           58   
    1143;  1016.5258;           44   
    1144;  1017.4010;           37   
    1145;  1018.2763;           30   
    1146;  1019.1516;           32   
    1147;  1020.0269;           34   
    1148;  1020.9021;           31   
    1149;  1021.7774;           26   
    1150;  1022.6527;           31   
    1151;  1023.5280;           26   
    1152;  1024.4032;           33   
    1153;  1025.2785;           22   
    1154;  1026.1538;           26   
    1155;  1027.0291;           30   
    1156;  1027.9043;           19   
    1157;  1028.7796;           22   
    1158;  1029.6549;           23   
    1159;  1030.5302;           22   
    1160;  1031.4054;           31   
    1161;  1032.2807;           35   
    1162;  1033.1560;           37   
    1163;  1034.0313;           31   
    1164;  1034.9065;           33   
    1165;  1035.7818;           31   
    1166;  1036.6571;           27   
    1167;  1037.5324;           27   
    1168;  1038.4076;           24   
    1169;  1039.2829;           22   
    1170;  1040.1582;           22   
    1171;  1041.0335;           35   
    1172;  1041.9087;           29   
    1173;  1042.7840;           32   
    1174;  1043.6593;           30   
    1175;  1044.5346;           21   
    1176;  1045.4098;           33   
    1177;  1046.2851;           31   
    1178;  1047.1604;           29   
    1179;  1048.0357;           24   
    1180;  1048.9109;           32   
    1181;  1049.7862;           24   
    1182;  1050.6615;           27   
    1183;  1051.5368;           31   
    1184;  1052.4120;           31   
    1185;  1053.2873;           25   
    1186;  1054.1626;           29   
    1187;  1055.0379;           33   
    1188;  1055.9131;           20   
    1189;  1056.7884;           31   
    1190;  1057.6637;           28   
    1191;  1058.5390;           33   
    1192;  1059.4142;           28   
    1193;  1060.2895;           34   
    1194;  1061.1648;           25   
    1195;  1062.0401;           32   
    1196;  1062.9153;           24   
    1197;  1063.7906;           27   
    1198;  1064.6659;           30   
    1199;  1065.5412;           30   
    1200;  1066.4164;           23   
    1201;  1067.2917;           26   
    1202;  1068.1670;           26   
    1203;  1069.0423;           18   
    1204;  1069.9175;           23   
    1205;  1070.7928;           27   
    1206;  1071.6681;           30   
    1207;  1072.5434;           27   
    1208;  1073.4186;           17   
    1209;  1074.2939;           32   
    1210;  1075.1692;           31   
    1211;  1076.0445;           33   
    1212;  1076.9197;           29   
    1213;  1077.7950;           28   
    1214;  1078.6703;           27   
    1215;  1079.5456;           27   
    1216;  1080.4208;           29   
    1217;  1081.2961;           28   
    1218;  1082.1714;           27   
    1219;  1083.0467;           24   
    1220;  1083.9219;           23   
    1221;  1084.7972;           38   
    1222;  1085.6725;           22   
    1223;  1086.5478;           26   
    1224;  1087.4230;           31   
    1225;  1088.2983;           27   
    1226;  1089.1736;           29   
    1227;  1090.0489;           29   
    1228;  1090.9241;           19   
    1229;  1091.7994;           30   
    1230;  1092.6747;           39   
    1231;  1093.5500;           33   
    1232;  1094.4252;           98   
    1233;  1095.3005;          350   
    1234;  1096.1758;          686   
    1235;  1097.0511;          559   
    1236;  1097.9263;          246   
    1237;  1098.8016;          106   
    1238;  1099.6769;          102   
    1239;  1100.5522;          139   
    1240;  1101.4274;           99   
    1241;  1102.3027;           34   
    1242;  1103.1780;           25   
    1243;  1104.0533;           29   
    1244;  1104.9285;           28   
    1245;  1105.8038;           34   
    1246;  1106.6791;           31   
    1247;  1107.5544;           24   
    1248;  1108.4296;           26   
    1249;  1109.3049;           20   
    1250;  1110.1802;           31   
    1251;  1111.0555;           25   
    1252;  1111.9307;           26   
    1253;  1112.8060;           32   
    1254;  1113.6813;           29   
    1255;  1114.5566;           27   
    1256;  1115.4318;           25   
    1257;  1116.3071;           25   
    1258;  1117.1824;           30   
    1259;  1118.0577;           34   
    1260;  1118.9329;           45   
    1261;  1119.8082;           47   
    1262;  1120.6835;          111   
    1263;  1121.5588;          350   
    1264;  1122.4340;          818   
    1265;  1123.3093;          768   
    1266;  1124.1846;          331   
    1267;  1125.0599;           92   
    1268;  1125.9351;           39   
    1269;  1126.8104;           23   
    1270;  1127.6857;           26   
    1271;  1128.5610;           24   
    1272;  1129.4362;           31   
    1273;  1130.3115;           44   
    1274;  1131.1868;           50   
    1275;  1132.0621;           41   
    1276;  1132.9373;           32   
    1277;  1133.8126;           35   
    1278;  1134.6879;           29   
    1279;  1135.5632;           23   
    1280;  1136.4384;           35   
    1281;  1137.3137;           29   
    1282;  1138.1890;           40   
    1283;  1139.0643;           38   
    1284;  1139.9395;           28   
    1285;  1140.8148;           32   
    1286;  1141.6901;           26   
    1287;  1142.5654;           34   
    1288;  1143.4406;           27   
    1289;  1144.3159;           25   
    1290;  1145.1912;           43   
    1291;  1146.0665;           30   
    1292;  1146.9417;           32   
    1293;  1147.8170;           34   
    1294;  1148.6923;           36   
    1295;  1149.5676;           20   
    1296;  1150.4428;           36   
    1297;  1151.3181;           23   
    1298;  1152.1934;           34   
    1299;  1153.0687;           23   
    1300;  1153.9439;           26   
    1301;  1154.8192;           28   
    1302;  1155.6945;           21   
    1303;  1156.5698;           33   
    1304;  1157.4450;           37   
    1305;  1158.3203;           25   
    1306;  1159.1956;           25   
    1307;  1160.0709;           33   
    1308;  1160.9461;           31   
    1309;  1161.8214;           29   
    1310;  1162.6967;           31   
    1311;  1163.5720;           36   
    1312;  1164.4472;           23   
    1313;  1165.3225;           29   
    1314;  1166.1978;           24   
    1315;  1167.0731;           34   
    1316;  1167.9483;           30   
    1317;  1168.8236;           30   
    1318;  1169.6989;           26   
    1319;  1170.5742;           28   
    1320;  1171.4494;           39   
    1321;  1172.3247;           27   
    1322;  1173.2000;           40   
    1323;  1174.0753;           31   
    1324;  1174.9505;           26   
    1325;  1175.8258;           24   
    1326;  1176.7011;           23   
    1327;  1177.5764;           30   
    1328;  1178.4516;           27   
    1329;  1179.3269;           26   
    1330;  1180.2022;           23   
    1331;  1181.0775;           20   
    1332;  1181.9527;           37   
    1333;  1182.8280;           30   
    1334;  1183.7033;           37   
    1335;  1184.5786;           35   
    1336;  1185.4538;           28   
    1337;  1186.3291;           29   
    1338;  1187.2044;           28   
    1339;  1188.0797;           44   
    1340;  1188.9549;           30   
    1341;  1189.8302;           38   
    1342;  1190.7055;           34   
    1343;  1191.5808;           20   
    1344;  1192.4560;           33   
    1345;  1193.3313;           21   
    1346;  1194.2066;           29   
    1347;  1195.0819;           29   
    1348;  1195.9571;           34   
    1349;  1196.8324;           34   
    1350;  1197.7077;           33   
    1351;  1198.5830;           30   
    1352;  1199.4582;           29   
    1353;  1200.3335;           28   
    1354;  1201.2088;           33   
    1355;  1202.0841;           44   
    1356;  1202.9593;           20   
    1357;  1203.8346;           23   
    1358;  1204.7099;           27   
    1359;  1205.5852;           22   
    1360;  1206.4604;           28   
    1361;  1207.3357;           19   
    1362;  1208.2110;           23   
    1363;  1209.0863;           30   
    1364;  1209.9615;           18   
    1365;  1210.8368;           25   
    1366;  1211.7121;           29   
    1367;  1212.5874;           19   
    1368;  1213.4626;           26   
    1369;  1214.3379;           26   
    1370;  1215.2132;           27   
    1371;  1216.0885;           28   
    1372;  1216.9637;           21   
    1373;  1217.8390;           28   
    1374;  1218.7143;           30   
    1375;  1219.5896;           24   
    1376;  1220.4648;           29   
    1377;  1221.3401;           21   
    1378;  1222.2154;           23   
    1379;  1223.0907;           41   
    1380;  1223.9659;           83   
    1381;  1224.8412;           99   
    1382;  1225.7165;           44   
    1383;  1226.5918;           27   
    1384;  1227.4670;           23   
    1385;  1228.3423;           26   
    1386;  1229.2176;           16   
    1387;  1230.0929;           20   
    1388;  1230.9681;           33   
    1389;  1231.8434;           23   
    1390;  1232.7187;           22   
    1391;  1233.5940;           17   
    1392;  1234.4692;           26   
    1393;  1235.3445;           18   
    1394;  1236.2198;           22   
    1395;  1237.0951;           23   
    1396;  1237.9703;           19   
    1397;  1238.8456;           30   
    1398;  1239.7209;           26   
    1399;  1240.5962;           18   
    1400;  1241.4714;           18   
    1401;  1242.3467;           22   
    1402;  1243.2220;           20   
    1403;  1244.0973;           17   
    1404;  1244.9725;           28   
    1405;  1245.8478;           16   
    1406;  1246.7231;           22   
    1407;  1247.5984;           28   
    1408;  1248.4736;           32   
    1409;  1249.3489;           28   
    1410;  1250.2242;           31   
    1411;  1251.0995;           26   
    1412;  1251.9747;           19   
    1413;  1252.8500;           23   
    1414;  1253.7253;           25   
    1415;  1254.6006;           18   
    1416;  1255.4758;           21   
    1417;  1256.3511;           12   
    1418;  1257.2264;           19   
    1419;  1258.1017;           20   
    1420;  1258.9769;           20   
    1421;  1259.8522;           16   
    1422;  1260.7275;           24   
    1423;  1261.6028;           28   
    1424;  1262.4780;           19   
    1425;  1263.3533;           24   
    1426;  1264.2286;           16   
    1427;  1265.1039;           22   
    1428;  1265.9791;           15   
    1429;  1266.8544;           18   
    1430;  1267.7297;           17   
    1431;  1268.6050;           19   
    1432;  1269.4802;           16   
    1433;  1270.3555;           19   
    1434;  1271.2308;           17   
    1435;  1272.1061;           16   
    1436;  1272.9813;           16   
    1437;  1273.8566;           18   
    1438;  1274.7319;           14   
    1439;  1275.6072;           15   
    1440;  1276.4824;           15   
    1441;  1277.3577;           20   
    1442;  1278.2330;            9   
    1443;  1279.1083;           10   
    1444;  1279.9835;            4   
    1445;  1280.8588;           20   
    1446;  1281.7341;           20   
    1447;  1282.6094;           13   
    1448;  1283.4846;           13   
    1449;  1284.3599;           11   
    1450;  1285.2352;           13   
    1451;  1286.1105;           24   
    1452;  1286.9857;           21   
    1453;  1287.8610;           11   
    1454;  1288.7363;           13   
    1455;  1289.6116;           14   
    1456;  1290.4868;           18   
    1457;  1291.3621;           22   
    1458;  1292.2374;           19   
    1459;  1293.1127;           12   
    1460;  1293.9879;           20   
    1461;  1294.8632;            9   
    1462;  1295.7385;           12   
    1463;  1296.6138;           11   
    1464;  1297.4890;            8   
    1465;  1298.3643;           10   
    1466;  1299.2396;            9   
    1467;  1300.1149;           15   
    1468;  1300.9901;            9   
    1469;  1301.8654;           11   
    1470;  1302.7407;           14   
    1471;  1303.6160;           11   
    1472;  1304.4912;           16   
    1473;  1305.3665;           10   
    1474;  1306.2418;            7   
    1475;  1307.1171;            5   
    1476;  1307.9923;           11   
    1477;  1308.8676;           18   
    1478;  1309.7429;           42   
    1479;  1310.6182;           62   
    1480;  1311.4934;          102   
    1481;  1312.3687;           52   
    1482;  1313.2440;           20   
    1483;  1314.1193;           10   
    1484;  1314.9945;           10   
    1485;  1315.8698;            7   
    1486;  1316.7451;            9   
    1487;  1317.6204;            6   
    1488;  1318.4956;            9   
    1489;  1319.3709;            4   
    1490;  1320.2462;            9   
    1491;  1321.1215;            3   
    1492;  1321.9967;           10   
    1493;  1322.8720;            7   
    1494;  1323.7473;           11   
    1495;  1324.6226;            5   
    1496;  1325.4978;            9   
    1497;  1326.3731;            9   
    1498;  1327.2484;            8   
    1499;  1328.1237;            7   
    1500;  1328.9989;            3   
    1501;  1329.8742;           13   
    1502;  1330.7495;            5   
    1503;  1331.6248;            7   
    1504;  1332.5000;            6   
    1505;  1333.3753;            7   
    1506;  1334.2506;           13   
    1507;  1335.1259;           10   
    1508;  1336.0011;            9   
    1509;  1336.8764;            7   
    1510;  1337.7517;            7   
    1511;  1338.6270;            6   
    1512;  1339.5022;           10   
    1513;  1340.3775;            4   
    1514;  1341.2528;            3   
    1515;  1342.1281;            5   
    1516;  1343.0033;            6   
    1517;  1343.8786;            8   
    1518;  1344.7539;            6   
    1519;  1345.6292;            8   
    1520;  1346.5044;            5   
    1521;  1347.3797;            2   
    1522;  1348.2550;            6   
    1523;  1349.1303;            8   
    1524;  1350.0055;            5   
    1525;  1350.8808;            7   
    1526;  1351.7561;            5   
    1527;  1352.6314;           11   
    1528;  1353.5066;            6   
    1529;  1354.3819;            8   
    1530;  1355.2572;            8   
    1531;  1356.1325;            9   
    1532;  1357.0077;            8   
    1533;  1357.8830;           14   
    1534;  1358.7583;            8   
    1535;  1359.6336;            9   
    1536;  1360.5088;            7   
    1537;  1361.3841;            9   
    1538;  1362.2594;            2   
    1539;  1363.1347;            4   
    1540;  1364.0099;            6   
    1541;  1364.8852;            7   
    1542;  1365.7605;            8   
    1543;  1366.6358;            5   
    1544;  1367.5110;           12   
    1545;  1368.3863;            5   
    1546;  1369.2616;            4   
    1547;  1370.1369;            8   
    1548;  1371.0121;            9   
    1549;  1371.8874;            5   
    1550;  1372.7627;           10   
    1551;  1373.6380;            3   
    1552;  1374.5132;            8   
    1553;  1375.3885;            5   
    1554;  1376.2638;            1   
    1555;  1377.1391;            4   
    1556;  1378.0143;           10   
    1557;  1378.8896;            7   
    1558;  1379.7649;            4   
    1559;  1380.6402;            6   
    1560;  1381.5154;            3   
    1561;  1382.3907;            6   
    1562;  1383.2660;            5   
    1563;  1384.1413;            6   
    1564;  1385.0165;            8   
    1565;  1385.8918;           11   
    1566;  1386.7671;            7   
    1567;  1387.6424;            2   
    1568;  1388.5176;            7   
    1569;  1389.3929;           10   
    1570;  1390.2682;            8   
    1571;  1391.1435;            7   
    1572;  1392.0187;            7   
    1573;  1392.8940;            5   
    1574;  1393.7693;            5   
    1575;  1394.6446;            7   
    1576;  1395.5198;            2   
    1577;  1396.3951;            5   
    1578;  1397.2704;            5   
    1579;  1398.1457;            4   
    1580;  1399.0209;            2   
    1581;  1399.8962;            5   
    1582;  1400.7715;            3   
    1583;  1401.6468;            3   
    1584;  1402.5220;            7   
    1585;  1403.3973;            7   
    1586;  1404.2726;            9   
    1587;  1405.1479;            3   
    1588;  1406.0231;            9   
    1589;  1406.8984;            3   
    1590;  1407.7737;            3   
    1591;  1408.6490;            7   
    1592;  1409.5242;            6   
    1593;  1410.3995;           10   
    1594;  1411.2748;            4   
    1595;  1412.1501;            3   
    1596;  1413.0253;            4   
    1597;  1413.9006;            8   
    1598;  1414.7759;            7   
    1599;  1415.6512;            7   
    1600;  1416.5264;           11   
    1601;  1417.4017;           18   
    1602;  1418.2770;           90   
    1603;  1419.1523;          294   
    1604;  1420.0275;          741   
    1605;  1420.9028;          975   
    1606;  1421.7781;          568   
    1607;  1422.6534;          205   
    1608;  1423.5286;           26   
    1609;  1424.4039;            9   
    1610;  1425.2792;           12   
    1611;  1426.1545;            5   
    1612;  1427.0297;            8   
    1613;  1427.9050;            4   
    1614;  1428.7803;            7   
    1615;  1429.6556;            4   
    1616;  1430.5308;            5   
    1617;  1431.4061;            5   
    1618;  1432.2814;            6   
    1619;  1433.1567;            1   
    1620;  1434.0319;            1   
    1621;  1434.9072;            4   
    1622;  1435.7825;            2   
    1623;  1436.6578;            5   
    1624;  1437.5330;            2   
    1625;  1438.4083;            1   
    1626;  1439.2836;            4   
    1627;  1440.1589;            3   
    1628;  1441.0341;            6   
    1629;  1441.9094;            2   
    1630;  1442.7847;            2   
    1631;  1443.6600;            2   
    1632;  1444.5352;            9   
    1633;  1445.4105;            6   
    1634;  1446.2858;            4   
    1635;  1447.1611;            4   
    1636;  1448.0363;            7   
    1637;  1448.9116;            2   
    1638;  1449.7869;            4   
    1639;  1450.6622;            3   
    1640;  1451.5374;            5   
    1641;  1452.4127;            6   
    1642;  1453.2880;            3   
    1643;  1454.1633;            6   
    1644;  1455.0385;            4   
    1645;  1455.9138;            2   
    1646;  1456.7891;            2   
    1647;  1457.6644;            4   
    1648;  1458.5396;            8   
    1649;  1459.4149;            4   
    1650;  1460.2902;            6   
    1651;  1461.1655;            1   
    1652;  1462.0407;            6   
    1653;  1462.9160;            4   
    1654;  1463.7913;            1   
    1655;  1464.6666;            0   
    1656;  1465.5418;            1   
    1657;  1466.4171;            5   
    1658;  1467.2924;            0   
    1659;  1468.1677;            8   
    1660;  1469.0429;            9   
    1661;  1469.9182;           14   
    1662;  1470.7935;           39   
    1663;  1471.6688;           57   
    1664;  1472.5440;          140   
    1665;  1473.4193;          275   
    1666;  1474.2946;          285   
    1667;  1475.1699;          143   
    1668;  1476.0451;           30   
    1669;  1476.9204;            7   
    1670;  1477.7957;            2   
    1671;  1478.6710;            2   
    1672;  1479.5462;            3   
    1673;  1480.4215;            2   
    1674;  1481.2968;            3   
    1675;  1482.1721;            1   
    1676;  1483.0473;            1   
    1677;  1483.9226;            1   
    1678;  1484.7979;            6   
    1679;  1485.6732;            0   
    1680;  1486.5484;            4   
    1681;  1487.4237;            2   
    1682;  1488.2990;            3   
    1683;  1489.1743;            1   
    1684;  1490.0495;            5   
    1685;  1490.9248;            5   
    1686;  1491.8001;            0   
    1687;  1492.6754;            3   
    1688;  1493.5506;            2   
    1689;  1494.4259;            5   
    1690;  1495.3012;            2   
    1691;  1496.1765;            1   
    1692;  1497.0517;            1   
    1693;  1497.9270;            4   
    1694;  1498.8023;            2   
    1695;  1499.6776;            0   
    1696;  1500.5528;            0   
    1697;  1501.4281;            2   
    1698;  1502.3034;            6   
    1699;  1503.1787;            1   
    1700;  1504.0539;            4   
    1701;  1504.9292;            2   
    1702;  1505.8045;            4   
    1703;  1506.6798;            4   
    1704;  1507.5550;            6   
    1705;  1508.4303;            2   
    1706;  1509.3056;            5   
    1707;  1510.1809;            3   
    1708;  1511.0561;            1   
    1709;  1511.9314;            3   
    1710;  1512.8067;            3   
    1711;  1513.6820;            2   
    1712;  1514.5572;            5   
    1713;  1515.4325;            0   
    1714;  1516.3078;            2   
    1715;  1517.1831;            6   
    1716;  1518.0583;            1   
    1717;  1518.9336;            2   
    1718;  1519.8089;            2   
    1719;  1520.6842;            4   
    1720;  1521.5594;            2   
    1721;  1522.4347;            7   
    1722;  1523.3100;            4   
    1723;  1524.1853;            2   
    1724;  1525.0605;            3   
    1725;  1525.9358;            4   
    1726;  1526.8111;            3   
    1727;  1527.6864;            4   
    1728;  1528.5616;            1   
    1729;  1529.4369;            3   
    1730;  1530.3122;            1   
    1731;  1531.1875;            2   
    1732;  1532.0627;            0   
    1733;  1532.9380;            2   
    1734;  1533.8133;            0   
    1735;  1534.6886;            1   
    1736;  1535.5638;            3   
    1737;  1536.4391;            1   
    1738;  1537.3144;            5   
    1739;  1538.1897;            3   
    1740;  1539.0649;            1   
    1741;  1539.9402;            8   
    1742;  1540.8155;            6   
    1743;  1541.6908;           16   
    1744;  1542.5660;            9   
    1745;  1543.4413;            5   
    1746;  1544.3166;            2   
    1747;  1545.1919;            0   
    1748;  1546.0671;            4   
    1749;  1546.9424;            4   
    1750;  1547.8177;            2   
    1751;  1548.6930;            2   
    1752;  1549.5682;            0   
    1753;  1550.4435;            3   
    1754;  1551.3188;            2   
    1755;  1552.1941;            3   
    1756;  1553.0693;            2   
    1757;  1553.9446;            1   
    1758;  1554.8199;            3   
    1759;  1555.6952;            1   
    1760;  1556.5704;            2   
    1761;  1557.4457;            2   
    1762;  1558.3210;            0   
    1763;  1559.1963;            1   
    1764;  1560.0715;            2   
    1765;  1560.9468;            2   
    1766;  1561.8221;            1   
    1767;  1562.6974;            4   
    1768;  1563.5726;            0   
    1769;  1564.4479;            2   
    1770;  1565.3232;            2   
    1771;  1566.1985;            0   
    1772;  1567.0737;            3   
    1773;  1567.9490;            2   
    1774;  1568.8243;            6   
    1775;  1569.6996;            3   
    1776;  1570.5748;            1   
    1777;  1571.4501;            1   
    1778;  1572.3254;            4   
    1779;  1573.2007;            3   
    1780;  1574.0759;            0   
    1781;  1574.9512;            2   
    1782;  1575.8265;            2   
    1783;  1576.7018;            2   
    1784;  1577.5770;            2   
    1785;  1578.4523;            0   
    1786;  1579.3276;            1   
    1787;  1580.2029;            1   
    1788;  1581.0781;            1   
    1789;  1581.9534;            1   
    1790;  1582.8287;            3   
    1791;  1583.7040;            0   
    1792;  1584.5792;            2   
    1793;  1585.4545;            1   
    1794;  1586.3298;            0   
    1795;  1587.2051;            3   
    1796;  1588.0803;            0   
    1797;  1588.9556;            6   
    1798;  1589.8309;            1   
    1799;  1590.7062;            0   
    1800;  1591.5814;            0   
    1801;  1592.4567;            2   
    1802;  1593.3320;            1   
    1803;  1594.2073;            5   
    1804;  1595.0825;            1   
    1805;  1595.9578;            2   
    1806;  1596.8331;            2   
    1807;  1597.7084;            3   
    1808;  1598.5836;            0   
    1809;  1599.4589;            3   
    1810;  1600.3342;            1   
    1811;  1601.2095;            0   
    1812;  1602.0847;            3   
    1813;  1602.9600;            4   
    1814;  1603.8353;            4   
    1815;  1604.7106;            0   
    1816;  1605.5858;            5   
    1817;  1606.4611;            8   
    1818;  1607.3364;            5   
    1819;  1608.2117;            3   
    1820;  1609.0869;            3   
    1821;  1609.9622;            3   
    1822;  1610.8375;            1   
    1823;  1611.7128;            3   
    1824;  1612.5880;            3   
    1825;  1613.4633;            3   
    1826;  1614.3386;            1   
    1827;  1615.2139;            1   
    1828;  1616.0891;            2   
    1829;  1616.9644;            0   
    1830;  1617.8397;            2   
    1831;  1618.7150;            3   
    1832;  1619.5902;            4   
    1833;  1620.4655;            1   
    1834;  1621.3408;            2   
    1835;  1622.2161;            2   
    1836;  1623.0913;            2   
    1837;  1623.9666;            3   
    1838;  1624.8419;            1   
    1839;  1625.7172;            0   
    1840;  1626.5924;            0   
    1841;  1627.4677;            0   
    1842;  1628.3430;            2   
    1843;  1629.2183;            2   
    1844;  1630.0935;            2   
    1845;  1630.9688;            0   
    1846;  1631.8441;            0   
    1847;  1632.7194;            0   
    1848;  1633.5946;            1   
    1849;  1634.4699;            1   
    1850;  1635.3452;            2   
    1851;  1636.2205;            3   
    1852;  1637.0957;            2   
    1853;  1637.9710;            1   
    1854;  1638.8463;            2   
    1855;  1639.7216;            2   
    1856;  1640.5968;            3   
    1857;  1641.4721;            2   
    1858;  1642.3474;            1   
    1859;  1643.2227;            2   
    1860;  1644.0979;            3   
    1861;  1644.9732;            2   
    1862;  1645.8485;            2   
    1863;  1646.7238;            2   
    1864;  1647.5990;            0   
    1865;  1648.4743;            0   
    1866;  1649.3496;            3   
    1867;  1650.2249;            2   
    1868;  1651.1001;            0   
    1869;  1651.9754;            0   
    1870;  1652.8507;            1   
    1871;  1653.7260;            1   
    1872;  1654.6012;            2   
    1873;  1655.4765;            5   
    1874;  1656.3518;            0   
    1875;  1657.2271;            1   
    1876;  1658.1023;            4   
    1877;  1658.9776;            2   
    1878;  1659.8529;            2   
    1879;  1660.7282;            2   
    1880;  1661.6034;            2   
    1881;  1662.4787;            0   
    1882;  1663.3540;            1   
    1883;  1664.2293;            2   
    1884;  1665.1045;            2   
    1885;  1665.9798;            1   
    1886;  1666.8551;            2   
    1887;  1667.7304;            1   
    1888;  1668.6056;            0   
    1889;  1669.4809;            0   
    1890;  1670.3562;            1   
    1891;  1671.2315;            0   
    1892;  1672.1067;            1   
    1893;  1672.9820;            3   
    1894;  1673.8573;            2   
    1895;  1674.7326;            0   
    1896;  1675.6078;            4   
    1897;  1676.4831;            0   
    1898;  1677.3584;            3   
    1899;  1678.2337;            0   
    1900;  1679.1089;            0   
    1901;  1679.9842;            1   
    1902;  1680.8595;            6   
    1903;  1681.7348;            2   
    1904;  1682.6100;            1   
    1905;  1683.4853;            2   
    1906;  1684.3606;            0   
    1907;  1685.2359;            0   
    1908;  1686.1111;            2   
    1909;  1686.9864;            1   
    1910;  1687.8617;            4   
    1911;  1688.7370;            1   
    1912;  1689.6122;            2   
    1913;  1690.4875;            0   
    1914;  1691.3628;            2   
    1915;  1692.2381;            2   
    1916;  1693.1133;            1   
    1917;  1693.9886;            0   
    1918;  1694.8639;            0   
    1919;  1695.7392;            2   
    1920;  1696.6144;            2   
    1921;  1697.4897;            1   
    1922;  1698.3650;            1   
    1923;  1699.2403;            1   
    1924;  1700.1155;            0   
    1925;  1700.9908;            2   
    1926;  1701.8661;            2   
    1927;  1702.7414;            3   
    1928;  1703.6166;            0   
    1929;  1704.4919;            1   
    1930;  1705.3672;            0   
    1931;  1706.2425;            2   
    1932;  1707.1177;            2   
    1933;  1707.9930;            1   
    1934;  1708.8683;            1   
    1935;  1709.7436;            1   
    1936;  1710.6188;            4   
    1937;  1711.4941;            0   
    1938;  1712.3694;            1   
    1939;  1713.2447;            0   
    1940;  1714.1199;            1   
    1941;  1714.9952;            0   
    1942;  1715.8705;            3   
    1943;  1716.7458;            3   
    1944;  1717.6210;            1   
    1945;  1718.4963;            1   
    1946;  1719.3716;            2   
    1947;  1720.2469;            2   
    1948;  1721.1221;            2   
    1949;  1721.9974;            0   
    1950;  1722.8727;            3   
    1951;  1723.7480;            1   
    1952;  1724.6232;            3   
    1953;  1725.4985;            0   
    1954;  1726.3738;            3   
    1955;  1727.2491;            2   
    1956;  1728.1243;            0   
    1957;  1728.9996;            0   
    1958;  1729.8749;            0   
    1959;  1730.7502;            0   
    1960;  1731.6254;            2   
    1961;  1732.5007;            0   
    1962;  1733.3760;            1   
    1963;  1734.2513;            4   
    1964;  1735.1265;            1   
    1965;  1736.0018;            1   
    1966;  1736.8771;            0   
    1967;  1737.7524;            2   
    1968;  1738.6276;            0   
    1969;  1739.5029;            1   
    1970;  1740.3782;            1   
    1971;  1741.2535;            0   
    1972;  1742.1287;            2   
    1973;  1743.0040;            2   
    1974;  1743.8793;            3   
    1975;  1744.7546;            2   
    1976;  1745.6298;            1   
    1977;  1746.5051;            2   
    1978;  1747.3804;            1   
    1979;  1748.2557;            2   
    1980;  1749.1309;            0   
    1981;  1750.0062;            0   
    1982;  1750.8815;            0   
    1983;  1751.7568;            0   
    1984;  1752.6320;            0   
    1985;  1753.5073;            0   
    1986;  1754.3826;            0   
    1987;  1755.2579;            0   
    1988;  1756.1331;            0   
    1989;  1757.0084;            0   
    1990;  1757.8837;            0   
    1991;  1758.7590;            0   
    1992;  1759.6342;            0   
    1993;  1760.5095;            0   
    1994;  1761.3848;            0   
    1995;  1762.2601;            0   
    1996;  1763.1353;            0   
    1997;  1764.0106;            0   
    1998;  1764.8859;            0   
    1999;  1765.7612;            0   
    2000;  1766.6364;            0   
    2001;  1767.5117;            0   
    2002;  1768.3870;            0   
    2003;  1769.2623;            0   
    2004;  1770.1375;            0   
    2005;  1771.0128;            0   
    2006;  1771.8881;            0   
    2007;  1772.7634;            0   
    2008;  1773.6386;            0   
    2009;  1774.5139;            0   
    2010;  1775.3892;            0   
    2011;  1776.2645;            0   
    2012;  1777.1397;            0   
    2013;  1778.0150;            0   
    2014;  1778.8903;            0   
    2015;  1779.7656;            0   
    2016;  1780.6408;            0   
    2017;  1781.5161;            0   
    2018;  1782.3914;            0   
    2019;  1783.2667;            0   
    2020;  1784.1419;            0   
    2021;  1785.0172;            0   
    2022;  1785.8925;            0   
    2023;  1786.7678;            0   
    2024;  1787.6430;            0   
    2025;  1788.5183;            0   
    2026;  1789.3936;            0   
    2027;  1790.2689;            0   
    2028;  1791.1441;            0   
    2029;  1792.0194;            0   
    2030;  1792.8947;            0   
    2031;  1793.7700;            0   
    2032;  1794.6452;            0   
    2033;  1795.5205;            0   
    2034;  1796.3958;            0   
    2035;  1797.2711;            0   
    2036;  1798.1463;            0   
    2037;  1799.0216;            0   
    2038;  1799.8969;            0   
    2039;  1800.7722;            0   
    2040;  1801.6474;            0   
    2041;  1802.5227;            0   
    2042;  1803.3980;            0   
    2043;  1804.2733;            0   
    2044;  1805.1485;            0   
    2045;  1806.0238;            0   
    2046;  1806.8991;            0   
    2047;  1807.7744;            0   
    2048;  1808.6496;            0   
ROI Nummer; Anfangskanal; Endkanal; Anfangsenergie keV ; Endenergie keV; Nettoimpulse; Bruttoimpulse; Untergrundimpulse
In den Daten wurden keine Linien gefunden
ROI Nummer; prozentualer Fehler der Lage; Lage keV; FWHM keV; FWTM keV; FWTM/FWHM Verhltnis; H/L Verhltnis
No Peak records found in data.
Name; Energie keV; Flags; Aktivitt uCi/Unit; Aktivittsfehler %; NWG uCi/Unit; MDA Error %
Es wurden keine Nuklidergebnisse gefunden.
Name; Erwartete Endergie keV; Gemessene Energie keV; Differenz von erwarteter keV; FWHM; Flags; Aktivitt uCi/Unit; Aktivittsfehler %
Es wurden keine Nuklidergebnisse gefunden.
