Kanal;   Energie(keV); Impulse
       1;    16.9617;         3544   
       2;    17.8370;         3396   
       3;    18.7122;         3274   
       4;    19.5875;         3295   
       5;    20.4628;         3179   
       6;    21.3381;         3124   
       7;    22.2133;         3046   
       8;    23.0886;         2927   
       9;    23.9639;         2977   
      10;    24.8392;         2883   
      11;    25.7144;         2812   
      12;    26.5897;         2743   
      13;    27.4650;         2734   
      14;    28.3403;         2698   
      15;    29.2155;         2663   
      16;    30.0908;         2598   
      17;    30.9661;         2612   
      18;    31.8414;         2513   
      19;    32.7166;         2552   
      20;    33.5919;         2485   
      21;    34.4672;         2588   
      22;    35.3425;         2550   
      23;    36.2177;         2542   
      24;    37.0930;         2509   
      25;    37.9683;         2556   
      26;    38.8436;         2471   
      27;    39.7188;         2436   
      28;    40.5941;         2569   
      29;    41.4694;         2463   
      30;    42.3447;         2519   
      31;    43.2199;         2448   
      32;    44.0952;         2460   
      33;    44.9705;         2479   
      34;    45.8458;         2440   
      35;    46.7210;         2440   
      36;    47.5963;         2502   
      37;    48.4716;         2390   
      38;    49.3469;         2432   
      39;    50.2221;         2324   
      40;    51.0974;         2363   
      41;    51.9727;         2400   
      42;    52.8480;         2384   
      43;    53.7232;         2313   
      44;    54.5985;         2326   
      45;    55.4738;         2399   
      46;    56.3491;         2325   
      47;    57.2243;         2355   
      48;    58.0996;         2343   
      49;    58.9749;         2377   
      50;    59.8502;         2361   
      51;    60.7254;         2390   
      52;    61.6007;         2386   
      53;    62.4760;         2353   
      54;    63.3513;         2382   
      55;    64.2265;         2320   
      56;    65.1018;         2360   
      57;    65.9771;         2385   
      58;    66.8524;         2389   
      59;    67.7276;         2380   
      60;    68.6029;         2361   
      61;    69.4782;         2434   
      62;    70.3535;         2418   
      63;    71.2287;         2560   
      64;    72.1040;         2436   
      65;    72.9793;         2541   
      66;    73.8546;         2952   
      67;    74.7298;         3190   
      68;    75.6051;         3133   
      69;    76.4804;         3841   
      70;    77.3557;         3441   
      71;    78.2309;         2615   
      72;    79.1062;         2479   
      73;    79.9815;         2547   
      74;    80.8568;         2475   
      75;    81.7320;         2491   
      76;    82.6073;         2519   
      77;    83.4826;         2462   
      78;    84.3579;         2654   
      79;    85.2331;         2853   
      80;    86.1084;         3299   
      81;    86.9837;         3188   
      82;    87.8590;         2755   
      83;    88.7342;         2831   
      84;    89.6095;         2762   
      85;    90.4848;         2590   
      86;    91.3601;         2589   
      87;    92.2353;         2544   
      88;    93.1106;         2461   
      89;    93.9859;         2365   
      90;    94.8612;         2556   
      91;    95.7364;         2427   
      92;    96.6117;         2425   
      93;    97.4870;         2446   
      94;    98.3623;         2486   
      95;    99.2375;         2529   
      96;   100.1128;         2542   
      97;   100.9881;         2618   
      98;   101.8634;         2501   
      99;   102.7386;         2482   
     100;   103.6139;         2430   
     101;   104.4892;         2525   
     102;   105.3645;         2435   
     103;   106.2397;         2637   
     104;   107.1150;         2585   
     105;   107.9903;         2502   
     106;   108.8656;         2614   
     107;   109.7408;         2532   
     108;   110.6161;         2623   
     109;   111.4914;         2673   
     110;   112.3667;         2629   
     111;   113.2419;         2597   
     112;   114.1172;         2672   
     113;   114.9925;         2671   
     114;   115.8678;         2645   
     115;   116.7430;         2631   
     116;   117.6183;         2718   
     117;   118.4936;         2730   
     118;   119.3689;         2786   
     119;   120.2441;         2630   
     120;   121.1194;         2773   
     121;   121.9947;         4139   
     122;   122.8700;         8173   
     123;   123.7452;         7325   
     124;   124.6205;         3477   
     125;   125.4958;         2709   
     126;   126.3711;         2600   
     127;   127.2463;         2683   
     128;   128.1216;         2639   
     129;   128.9969;         2532   
     130;   129.8722;         2579   
     131;   130.7474;         2550   
     132;   131.6227;         2621   
     133;   132.4980;         2514   
     134;   133.3733;         2621   
     135;   134.2485;         2632   
     136;   135.1238;         2632   
     137;   135.9991;         2579   
     138;   136.8744;         2526   
     139;   137.7496;         2616   
     140;   138.6249;         2674   
     141;   139.5002;         2627   
     142;   140.3755;         2561   
     143;   141.2507;         2610   
     144;   142.1260;         2618   
     145;   143.0013;         2574   
     146;   143.8766;         2524   
     147;   144.7518;         2642   
     148;   145.6271;         2559   
     149;   146.5024;         2546   
     150;   147.3777;         2585   
     151;   148.2529;         2536   
     152;   149.1282;         2712   
     153;   150.0035;         2716   
     154;   150.8788;         2593   
     155;   151.7540;         2708   
     156;   152.6293;         2659   
     157;   153.5046;         2655   
     158;   154.3799;         2690   
     159;   155.2551;         2666   
     160;   156.1304;         2712   
     161;   157.0057;         2569   
     162;   157.8810;         2657   
     163;   158.7562;         2650   
     164;   159.6315;         2614   
     165;   160.5068;         2688   
     166;   161.3821;         2684   
     167;   162.2573;         2739   
     168;   163.1326;         2634   
     169;   164.0079;         2662   
     170;   164.8832;         2701   
     171;   165.7584;         2722   
     172;   166.6337;         2696   
     173;   167.5090;         2663   
     174;   168.3843;         2757   
     175;   169.2595;         2627   
     176;   170.1348;         2826   
     177;   171.0101;         2782   
     178;   171.8854;         2742   
     179;   172.7606;         2723   
     180;   173.6359;         2805   
     181;   174.5112;         2812   
     182;   175.3865;         2809   
     183;   176.2617;         2793   
     184;   177.1370;         2763   
     185;   178.0123;         2861   
     186;   178.8876;         2911   
     187;   179.7628;         2812   
     188;   180.6381;         2947   
     189;   181.5134;         3010   
     190;   182.3887;         2935   
     191;   183.2639;         3103   
     192;   184.1392;         3326   
     193;   185.0145;         3526   
     194;   185.8898;         3653   
     195;   186.7650;         3878   
     196;   187.6403;         3929   
     197;   188.5156;         4046   
     198;   189.3909;         4073   
     199;   190.2661;         4152   
     200;   191.1414;         4149   
     201;   192.0167;         4178   
     202;   192.8920;         4205   
     203;   193.7672;         4174   
     204;   194.6425;         4160   
     205;   195.5178;         4119   
     206;   196.3931;         4059   
     207;   197.2683;         4044   
     208;   198.1436;         3842   
     209;   199.0189;         3964   
     210;   199.8942;         3782   
     211;   200.7694;         3846   
     212;   201.6447;         3643   
     213;   202.5200;         3704   
     214;   203.3953;         3525   
     215;   204.2705;         3501   
     216;   205.1458;         3488   
     217;   206.0211;         3404   
     218;   206.8964;         3336   
     219;   207.7716;         3412   
     220;   208.6469;         3189   
     221;   209.5222;         3209   
     222;   210.3975;         3154   
     223;   211.2727;         3199   
     224;   212.1480;         3002   
     225;   213.0233;         3076   
     226;   213.8986;         3003   
     227;   214.7738;         3043   
     228;   215.6491;         3004   
     229;   216.5244;         3064   
     230;   217.3997;         2992   
     231;   218.2749;         2953   
     232;   219.1502;         2843   
     233;   220.0255;         2889   
     234;   220.9008;         2764   
     235;   221.7760;         2792   
     236;   222.6513;         2886   
     237;   223.5266;         2699   
     238;   224.4019;         2828   
     239;   225.2771;         2799   
     240;   226.1524;         2681   
     241;   227.0277;         2742   
     242;   227.9030;         2693   
     243;   228.7782;         2573   
     244;   229.6535;         2673   
     245;   230.5288;         2615   
     246;   231.4041;         2570   
     247;   232.2793;         2615   
     248;   233.1546;         2613   
     249;   234.0299;         2546   
     250;   234.9052;         2609   
     251;   235.7804;         2567   
     252;   236.6557;         2579   
     253;   237.5310;         2572   
     254;   238.4063;         2558   
     255;   239.2815;         2566   
     256;   240.1568;         2583   
     257;   241.0321;         2420   
     258;   241.9074;         2517   
     259;   242.7826;         2491   
     260;   243.6579;         2510   
     261;   244.5332;         3056   
     262;   245.4085;         3777   
     263;   246.2837;         3025   
     264;   247.1590;         2455   
     265;   248.0343;         2388   
     266;   248.9096;         2357   
     267;   249.7848;         2318   
     268;   250.6601;         2344   
     269;   251.5354;         2297   
     270;   252.4107;         2355   
     271;   253.2859;         2327   
     272;   254.1612;         2315   
     273;   255.0365;         2216   
     274;   255.9118;         2199   
     275;   256.7870;         2235   
     276;   257.6623;         2268   
     277;   258.5376;         2367   
     278;   259.4129;         2365   
     279;   260.2881;         2268   
     280;   261.1634;         2271   
     281;   262.0387;         2215   
     282;   262.9140;         2229   
     283;   263.7892;         2263   
     284;   264.6645;         2240   
     285;   265.5398;         2164   
     286;   266.4151;         2185   
     287;   267.2903;         2311   
     288;   268.1656;         2248   
     289;   269.0409;         2232   
     290;   269.9162;         2172   
     291;   270.7914;         2196   
     292;   271.6667;         2209   
     293;   272.5420;         2216   
     294;   273.4173;         2215   
     295;   274.2925;         2206   
     296;   275.1678;         2276   
     297;   276.0431;         2175   
     298;   276.9184;         2189   
     299;   277.7936;         2167   
     300;   278.6689;         2191   
     301;   279.5442;         2140   
     302;   280.4195;         2211   
     303;   281.2947;         2077   
     304;   282.1700;         2184   
     305;   283.0453;         2140   
     306;   283.9206;         2152   
     307;   284.7958;         2171   
     308;   285.6711;         2200   
     309;   286.5464;         2180   
     310;   287.4217;         2055   
     311;   288.2969;         2097   
     312;   289.1722;         2196   
     313;   290.0475;         2182   
     314;   290.9228;         2163   
     315;   291.7980;         2113   
     316;   292.6733;         2146   
     317;   293.5486;         2092   
     318;   294.4239;         2175   
     319;   295.2991;         2135   
     320;   296.1744;         2215   
     321;   297.0497;         2215   
     322;   297.9250;         2108   
     323;   298.8002;         2068   
     324;   299.6755;         2119   
     325;   300.5508;         2199   
     326;   301.4261;         2116   
     327;   302.3013;         2067   
     328;   303.1766;         2096   
     329;   304.0519;         2160   
     330;   304.9272;         2145   
     331;   305.8024;         2071   
     332;   306.6777;         2100   
     333;   307.5530;         2079   
     334;   308.4283;         2106   
     335;   309.3035;         2047   
     336;   310.1788;         2080   
     337;   311.0541;         2030   
     338;   311.9294;         2137   
     339;   312.8046;         2093   
     340;   313.6799;         2081   
     341;   314.5552;         2068   
     342;   315.4305;         2121   
     343;   316.3057;         2117   
     344;   317.1810;         2081   
     345;   318.0563;         2144   
     346;   318.9316;         2155   
     347;   319.8068;         2015   
     348;   320.6821;         2079   
     349;   321.5574;         2108   
     350;   322.4327;         2158   
     351;   323.3079;         2072   
     352;   324.1832;         2073   
     353;   325.0585;         2103   
     354;   325.9338;         2113   
     355;   326.8090;         2044   
     356;   327.6843;         2143   
     357;   328.5596;         1998   
     358;   329.4349;         2114   
     359;   330.3101;         2104   
     360;   331.1854;         2102   
     361;   332.0607;         2017   
     362;   332.9360;         2189   
     363;   333.8112;         2098   
     364;   334.6865;         2123   
     365;   335.5618;         2042   
     366;   336.4371;         2131   
     367;   337.3123;         2124   
     368;   338.1876;         2156   
     369;   339.0629;         2170   
     370;   339.9382;         2123   
     371;   340.8134;         2127   
     372;   341.6887;         2119   
     373;   342.5640;         2303   
     374;   343.4393;         3820   
     375;   344.3145;         5670   
     376;   345.1898;         4101   
     377;   346.0651;         2446   
     378;   346.9404;         2178   
     379;   347.8156;         2186   
     380;   348.6909;         2043   
     381;   349.5662;         2093   
     382;   350.4415;         2100   
     383;   351.3167;         2180   
     384;   352.1920;         2182   
     385;   353.0673;         2112   
     386;   353.9426;         2195   
     387;   354.8178;         2095   
     388;   355.6931;         2204   
     389;   356.5684;         2207   
     390;   357.4437;         2176   
     391;   358.3189;         2025   
     392;   359.1942;         2118   
     393;   360.0695;         2206   
     394;   360.9448;         2116   
     395;   361.8200;         2190   
     396;   362.6953;         2185   
     397;   363.5706;         2183   
     398;   364.4459;         2150   
     399;   365.3211;         2147   
     400;   366.1964;         2179   
     401;   367.0717;         2278   
     402;   367.9470;         2245   
     403;   368.8222;         2244   
     404;   369.6975;         2238   
     405;   370.5728;         2142   
     406;   371.4481;         2177   
     407;   372.3233;         2176   
     408;   373.1986;         2206   
     409;   374.0739;         2261   
     410;   374.9492;         2234   
     411;   375.8244;         2194   
     412;   376.6997;         2203   
     413;   377.5750;         2238   
     414;   378.4503;         2187   
     415;   379.3255;         2210   
     416;   380.2008;         2266   
     417;   381.0761;         2167   
     418;   381.9514;         2238   
     419;   382.8266;         2254   
     420;   383.7019;         2288   
     421;   384.5772;         2214   
     422;   385.4525;         2334   
     423;   386.3277;         2347   
     424;   387.2030;         2272   
     425;   388.0783;         2299   
     426;   388.9536;         2238   
     427;   389.8288;         2336   
     428;   390.7041;         2307   
     429;   391.5794;         2273   
     430;   392.4547;         2290   
     431;   393.3299;         2283   
     432;   394.2052;         2332   
     433;   395.0805;         2388   
     434;   395.9558;         2331   
     435;   396.8310;         2295   
     436;   397.7063;         2367   
     437;   398.5816;         2374   
     438;   399.4569;         2381   
     439;   400.3321;         2346   
     440;   401.2074;         2421   
     441;   402.0827;         2423   
     442;   402.9580;         2390   
     443;   403.8332;         2391   
     444;   404.7085;         2412   
     445;   405.5838;         2422   
     446;   406.4591;         2467   
     447;   407.3343;         2407   
     448;   408.2096;         2525   
     449;   409.0849;         2430   
     450;   409.9602;         2602   
     451;   410.8354;         2683   
     452;   411.7107;         2578   
     453;   412.5860;         2408   
     454;   413.4613;         2585   
     455;   414.3365;         2419   
     456;   415.2118;         2612   
     457;   416.0871;         2587   
     458;   416.9624;         2551   
     459;   417.8376;         2482   
     460;   418.7129;         2587   
     461;   419.5882;         2572   
     462;   420.4635;         2679   
     463;   421.3387;         2537   
     464;   422.2140;         2555   
     465;   423.0893;         2489   
     466;   423.9646;         2579   
     467;   424.8398;         2554   
     468;   425.7151;         2669   
     469;   426.5904;         2725   
     470;   427.4657;         2700   
     471;   428.3409;         2619   
     472;   429.2162;         2666   
     473;   430.0915;         2699   
     474;   430.9668;         2657   
     475;   431.8420;         2639   
     476;   432.7173;         2765   
     477;   433.5926;         2735   
     478;   434.4679;         2808   
     479;   435.3431;         2860   
     480;   436.2184;         2848   
     481;   437.0937;         2703   
     482;   437.9690;         2863   
     483;   438.8442;         2830   
     484;   439.7195;         2752   
     485;   440.5948;         2839   
     486;   441.4701;         2857   
     487;   442.3453;         2871   
     488;   443.2206;         3193   
     489;   444.0959;         3097   
     490;   444.9712;         2962   
     491;   445.8464;         3023   
     492;   446.7217;         2952   
     493;   447.5970;         2898   
     494;   448.4723;         2999   
     495;   449.3475;         3031   
     496;   450.2228;         3013   
     497;   451.0981;         2958   
     498;   451.9734;         3072   
     499;   452.8486;         3046   
     500;   453.7239;         2959   
     501;   454.5992;         3104   
     502;   455.4745;         3096   
     503;   456.3497;         3021   
     504;   457.2250;         3119   
     505;   458.1003;         3073   
     506;   458.9756;         3137   
     507;   459.8508;         3110   
     508;   460.7261;         3215   
     509;   461.6014;         3131   
     510;   462.4767;         3087   
     511;   463.3519;         3257   
     512;   464.2272;         3109   
     513;   465.1025;         3280   
     514;   465.9778;         3208   
     515;   466.8530;         3322   
     516;   467.7283;         3195   
     517;   468.6036;         3159   
     518;   469.4789;         3227   
     519;   470.3541;         3263   
     520;   471.2294;         3195   
     521;   472.1047;         3137   
     522;   472.9800;         3197   
     523;   473.8552;         3151   
     524;   474.7305;         2912   
     525;   475.6058;         2846   
     526;   476.4811;         2769   
     527;   477.3563;         2610   
     528;   478.2316;         2420   
     529;   479.1069;         2403   
     530;   479.9822;         2329   
     531;   480.8574;         2242   
     532;   481.7327;         2225   
     533;   482.6080;         2146   
     534;   483.4833;         2057   
     535;   484.3585;         1996   
     536;   485.2338;         2002   
     537;   486.1091;         1849   
     538;   486.9844;         2008   
     539;   487.8596;         1960   
     540;   488.7349;         1768   
     541;   489.6102;         1761   
     542;   490.4855;         1854   
     543;   491.3607;         1789   
     544;   492.2360;         1837   
     545;   493.1113;         1754   
     546;   493.9866;         1738   
     547;   494.8618;         1712   
     548;   495.7371;         1704   
     549;   496.6124;         1696   
     550;   497.4877;         1700   
     551;   498.3629;         1670   
     552;   499.2382;         1627   
     553;   500.1135;         1636   
     554;   500.9888;         1659   
     555;   501.8640;         1516   
     556;   502.7393;         1597   
     557;   503.6146;         1616   
     558;   504.4899;         1538   
     559;   505.3651;         1510   
     560;   506.2404;         1579   
     561;   507.1157;         1550   
     562;   507.9910;         1518   
     563;   508.8662;         1441   
     564;   509.7415;         1448   
     565;   510.6168;         1404   
     566;   511.4921;         1405   
     567;   512.3673;         1370   
     568;   513.2426;         1420   
     569;   514.1179;         1394   
     570;   514.9932;         1339   
     571;   515.8684;         1286   
     572;   516.7437;         1330   
     573;   517.6190;         1310   
     574;   518.4943;         1287   
     575;   519.3695;         1264   
     576;   520.2448;         1313   
     577;   521.1201;         1237   
     578;   521.9954;         1253   
     579;   522.8706;         1254   
     580;   523.7459;         1245   
     581;   524.6212;         1224   
     582;   525.4965;         1209   
     583;   526.3717;         1210   
     584;   527.2470;         1189   
     585;   528.1223;         1137   
     586;   528.9976;         1095   
     587;   529.8728;         1145   
     588;   530.7481;         1140   
     589;   531.6234;         1060   
     590;   532.4987;         1074   
     591;   533.3739;         1084   
     592;   534.2492;         1046   
     593;   535.1245;         1053   
     594;   535.9998;         1038   
     595;   536.8750;         1063   
     596;   537.7503;         1009   
     597;   538.6256;         1007   
     598;   539.5009;          985   
     599;   540.3761;          939   
     600;   541.2514;         1003   
     601;   542.1267;          949   
     602;   543.0020;          949   
     603;   543.8772;          964   
     604;   544.7525;          882   
     605;   545.6278;          903   
     606;   546.5031;          861   
     607;   547.3783;          877   
     608;   548.2536;          883   
     609;   549.1289;          871   
     610;   550.0042;          814   
     611;   550.8794;          762   
     612;   551.7547;          760   
     613;   552.6300;          787   
     614;   553.5053;          733   
     615;   554.3805;          800   
     616;   555.2558;          808   
     617;   556.1311;          737   
     618;   557.0064;          777   
     619;   557.8816;          707   
     620;   558.7569;          784   
     621;   559.6322;          712   
     622;   560.5075;          689   
     623;   561.3827;          788   
     624;   562.2580;          763   
     625;   563.1333;          783   
     626;   564.0086;          731   
     627;   564.8838;          707   
     628;   565.7591;          714   
     629;   566.6344;          688   
     630;   567.5097;          662   
     631;   568.3849;          661   
     632;   569.2602;          657   
     633;   570.1355;          672   
     634;   571.0108;          631   
     635;   571.8860;          635   
     636;   572.7613;          643   
     637;   573.6366;          644   
     638;   574.5119;          645   
     639;   575.3871;          634   
     640;   576.2624;          649   
     641;   577.1377;          661   
     642;   578.0130;          649   
     643;   578.8882;          668   
     644;   579.7635;          648   
     645;   580.6388;          695   
     646;   581.5141;          634   
     647;   582.3893;          639   
     648;   583.2646;          645   
     649;   584.1399;          589   
     650;   585.0152;          658   
     651;   585.8904;          664   
     652;   586.7657;          670   
     653;   587.6410;          637   
     654;   588.5163;          566   
     655;   589.3915;          638   
     656;   590.2668;          612   
     657;   591.1421;          550   
     658;   592.0174;          657   
     659;   592.8926;          615   
     660;   593.7679;          606   
     661;   594.6432;          618   
     662;   595.5185;          618   
     663;   596.3937;          576   
     664;   597.2690;          588   
     665;   598.1443;          568   
     666;   599.0196;          558   
     667;   599.8948;          613   
     668;   600.7701;          599   
     669;   601.6454;          542   
     670;   602.5207;          561   
     671;   603.3959;          568   
     672;   604.2712;          574   
     673;   605.1465;          580   
     674;   606.0218;          578   
     675;   606.8970;          595   
     676;   607.7723;          600   
     677;   608.6476;          557   
     678;   609.5229;          586   
     679;   610.3981;          580   
     680;   611.2734;          552   
     681;   612.1487;          557   
     682;   613.0240;          520   
     683;   613.8992;          507   
     684;   614.7745;          563   
     685;   615.6498;          544   
     686;   616.5251;          528   
     687;   617.4003;          566   
     688;   618.2756;          521   
     689;   619.1509;          502   
     690;   620.0262;          542   
     691;   620.9014;          567   
     692;   621.7767;          527   
     693;   622.6520;          575   
     694;   623.5273;          493   
     695;   624.4025;          501   
     696;   625.2778;          553   
     697;   626.1531;          494   
     698;   627.0284;          533   
     699;   627.9036;          521   
     700;   628.7789;          494   
     701;   629.6542;          536   
     702;   630.5295;          537   
     703;   631.4047;          502   
     704;   632.2800;          525   
     705;   633.1553;          522   
     706;   634.0306;          485   
     707;   634.9058;          492   
     708;   635.7811;          510   
     709;   636.6564;          519   
     710;   637.5317;          507   
     711;   638.4069;          429   
     712;   639.2822;          511   
     713;   640.1575;          475   
     714;   641.0328;          452   
     715;   641.9080;          426   
     716;   642.7833;          502   
     717;   643.6586;          479   
     718;   644.5339;          469   
     719;   645.4091;          475   
     720;   646.2844;          462   
     721;   647.1597;          513   
     722;   648.0350;          482   
     723;   648.9102;          493   
     724;   649.7855;          468   
     725;   650.6608;          501   
     726;   651.5361;          494   
     727;   652.4113;          513   
     728;   653.2866;          500   
     729;   654.1619;          552   
     730;   655.0372;          605   
     731;   655.9124;          686   
     732;   656.7877;         1218   
     733;   657.6630;         7628   
     734;   658.5383;        49286   
     735;   659.4135;       140825   
     736;   660.2888;       142662   
     737;   661.1641;        49990   
     738;   662.0394;         8668   
     739;   662.9146;         3185   
     740;   663.7899;         2339   
     741;   664.6652;         1906   
     742;   665.5405;         1373   
     743;   666.4157;          979   
     744;   667.2910;          901   
     745;   668.1663;          777   
     746;   669.0416;          705   
     747;   669.9168;          677   
     748;   670.7921;          697   
     749;   671.6674;          635   
     750;   672.5427;          612   
     751;   673.4179;          616   
     752;   674.2932;          578   
     753;   675.1685;          574   
     754;   676.0438;          576   
     755;   676.9190;          566   
     756;   677.7943;          566   
     757;   678.6696;          553   
     758;   679.5449;          512   
     759;   680.4201;          510   
     760;   681.2954;          514   
     761;   682.1707;          527   
     762;   683.0460;          495   
     763;   683.9212;          527   
     764;   684.7965;          484   
     765;   685.6718;          509   
     766;   686.5471;          518   
     767;   687.4223;          474   
     768;   688.2976;          495   
     769;   689.1729;          484   
     770;   690.0482;          488   
     771;   690.9234;          462   
     772;   691.7987;          460   
     773;   692.6740;          466   
     774;   693.5493;          455   
     775;   694.4245;          432   
     776;   695.2998;          499   
     777;   696.1751;          447   
     778;   697.0504;          463   
     779;   697.9256;          460   
     780;   698.8009;          430   
     781;   699.6762;          439   
     782;   700.5515;          464   
     783;   701.4267;          456   
     784;   702.3020;          440   
     785;   703.1773;          412   
     786;   704.0526;          459   
     787;   704.9278;          438   
     788;   705.8031;          432   
     789;   706.6784;          363   
     790;   707.5537;          411   
     791;   708.4289;          434   
     792;   709.3042;          427   
     793;   710.1795;          436   
     794;   711.0548;          419   
     795;   711.9300;          434   
     796;   712.8053;          416   
     797;   713.6806;          402   
     798;   714.5559;          416   
     799;   715.4311;          420   
     800;   716.3064;          433   
     801;   717.1817;          403   
     802;   718.0570;          406   
     803;   718.9322;          403   
     804;   719.8075;          370   
     805;   720.6828;          375   
     806;   721.5581;          416   
     807;   722.4333;          398   
     808;   723.3086;          414   
     809;   724.1839;          385   
     810;   725.0592;          421   
     811;   725.9344;          383   
     812;   726.8097;          393   
     813;   727.6850;          389   
     814;   728.5603;          402   
     815;   729.4355;          376   
     816;   730.3108;          396   
     817;   731.1861;          421   
     818;   732.0614;          349   
     819;   732.9366;          374   
     820;   733.8119;          368   
     821;   734.6872;          373   
     822;   735.5625;          341   
     823;   736.4377;          333   
     824;   737.3130;          359   
     825;   738.1883;          386   
     826;   739.0636;          336   
     827;   739.9388;          355   
     828;   740.8141;          350   
     829;   741.6894;          335   
     830;   742.5647;          338   
     831;   743.4399;          344   
     832;   744.3152;          375   
     833;   745.1905;          365   
     834;   746.0658;          352   
     835;   746.9410;          358   
     836;   747.8163;          366   
     837;   748.6916;          356   
     838;   749.5669;          359   
     839;   750.4421;          376   
     840;   751.3174;          364   
     841;   752.1927;          346   
     842;   753.0680;          368   
     843;   753.9432;          350   
     844;   754.8185;          326   
     845;   755.6938;          351   
     846;   756.5691;          358   
     847;   757.4443;          360   
     848;   758.3196;          334   
     849;   759.1949;          359   
     850;   760.0702;          364   
     851;   760.9454;          354   
     852;   761.8207;          367   
     853;   762.6960;          356   
     854;   763.5713;          342   
     855;   764.4465;          332   
     856;   765.3218;          329   
     857;   766.1971;          339   
     858;   767.0724;          343   
     859;   767.9476;          348   
     860;   768.8229;          336   
     861;   769.6982;          299   
     862;   770.5735;          323   
     863;   771.4487;          330   
     864;   772.3240;          341   
     865;   773.1993;          328   
     866;   774.0746;          396   
     867;   774.9498;          528   
     868;   775.8251;          900   
     869;   776.7004;         1016   
     870;   777.5757;          622   
     871;   778.4509;          378   
     872;   779.3262;          312   
     873;   780.2015;          350   
     874;   781.0768;          330   
     875;   781.9520;          308   
     876;   782.8273;          322   
     877;   783.7026;          336   
     878;   784.5779;          317   
     879;   785.4531;          339   
     880;   786.3284;          272   
     881;   787.2037;          277   
     882;   788.0790;          270   
     883;   788.9542;          315   
     884;   789.8295;          290   
     885;   790.7048;          303   
     886;   791.5801;          283   
     887;   792.4553;          272   
     888;   793.3306;          284   
     889;   794.2059;          275   
     890;   795.0812;          270   
     891;   795.9564;          303   
     892;   796.8317;          275   
     893;   797.7070;          279   
     894;   798.5823;          297   
     895;   799.4575;          287   
     896;   800.3328;          285   
     897;   801.2081;          279   
     898;   802.0834;          274   
     899;   802.9586;          276   
     900;   803.8339;          256   
     901;   804.7092;          267   
     902;   805.5845;          254   
     903;   806.4597;          274   
     904;   807.3350;          292   
     905;   808.2103;          277   
     906;   809.0856;          317   
     907;   809.9608;          257   
     908;   810.8361;          271   
     909;   811.7114;          259   
     910;   812.5867;          289   
     911;   813.4619;          284   
     912;   814.3372;          285   
     913;   815.2125;          277   
     914;   816.0878;          291   
     915;   816.9631;          286   
     916;   817.8383;          258   
     917;   818.7136;          301   
     918;   819.5889;          274   
     919;   820.4642;          254   
     920;   821.3394;          265   
     921;   822.2147;          285   
     922;   823.0900;          286   
     923;   823.9653;          291   
     924;   824.8405;          273   
     925;   825.7158;          246   
     926;   826.5911;          262   
     927;   827.4664;          247   
     928;   828.3416;          281   
     929;   829.2169;          286   
     930;   830.0922;          266   
     931;   830.9675;          270   
     932;   831.8427;          269   
     933;   832.7180;          271   
     934;   833.5933;          235   
     935;   834.4686;          239   
     936;   835.3438;          277   
     937;   836.2191;          245   
     938;   837.0944;          259   
     939;   837.9697;          289   
     940;   838.8449;          276   
     941;   839.7202;          259   
     942;   840.5955;          286   
     943;   841.4708;          297   
     944;   842.3460;          298   
     945;   843.2213;          263   
     946;   844.0966;          304   
     947;   844.9719;          264   
     948;   845.8471;          280   
     949;   846.7224;          299   
     950;   847.5977;          273   
     951;   848.4730;          254   
     952;   849.3482;          298   
     953;   850.2235;          289   
     954;   851.0988;          254   
     955;   851.9741;          301   
     956;   852.8493;          246   
     957;   853.7246;          256   
     958;   854.5999;          225   
     959;   855.4752;          242   
     960;   856.3504;          250   
     961;   857.2257;          222   
     962;   858.1010;          243   
     963;   858.9763;          254   
     964;   859.8515;          246   
     965;   860.7268;          260   
     966;   861.6021;          217   
     967;   862.4774;          297   
     968;   863.3526;          383   
     969;   864.2279;          465   
     970;   865.1032;          355   
     971;   865.9785;          287   
     972;   866.8537;          253   
     973;   867.7290;          270   
     974;   868.6043;          236   
     975;   869.4796;          228   
     976;   870.3548;          225   
     977;   871.2301;          235   
     978;   872.1054;          210   
     979;   872.9807;          238   
     980;   873.8559;          236   
     981;   874.7312;          228   
     982;   875.6065;          247   
     983;   876.4818;          222   
     984;   877.3570;          229   
     985;   878.2323;          205   
     986;   879.1076;          192   
     987;   879.9829;          224   
     988;   880.8581;          194   
     989;   881.7334;          213   
     990;   882.6087;          198   
     991;   883.4840;          215   
     992;   884.3592;          205   
     993;   885.2345;          216   
     994;   886.1098;          215   
     995;   886.9851;          186   
     996;   887.8603;          205   
     997;   888.7356;          186   
     998;   889.6109;          198   
     999;   890.4862;          200   
    1000;   891.3614;          213   
    1001;   892.2367;          197   
    1002;   893.1120;          201   
    1003;   893.9873;          213   
    1004;   894.8625;          197   
    1005;   895.7378;          204   
    1006;   896.6131;          181   
    1007;   897.4884;          224   
    1008;   898.3636;          201   
    1009;   899.2389;          184   
    1010;   900.1142;          182   
    1011;   900.9895;          210   
    1012;   901.8647;          153   
    1013;   902.7400;          186   
    1014;   903.6153;          218   
    1015;   904.4906;          202   
    1016;   905.3658;          221   
    1017;   906.2411;          204   
    1018;   907.1164;          188   
    1019;   907.9917;          199   
    1020;   908.8669;          193   
    1021;   909.7422;          206   
    1022;   910.6175;          181   
    1023;   911.4928;          179   
    1024;   912.3680;          183   
    1025;   913.2433;          166   
    1026;   914.1186;          181   
    1027;   914.9939;          219   
    1028;   915.8691;          197   
    1029;   916.7444;          179   
    1030;   917.6197;          171   
    1031;   918.4950;          170   
    1032;   919.3702;          188   
    1033;   920.2455;          194   
    1034;   921.1208;          187   
    1035;   921.9961;          213   
    1036;   922.8713;          214   
    1037;   923.7466;          200   
    1038;   924.6219;          191   
    1039;   925.4972;          165   
    1040;   926.3724;          170   
    1041;   927.2477;          140   
    1042;   928.1230;          162   
    1043;   928.9983;          178   
    1044;   929.8735;          178   
    1045;   930.7488;          186   
    1046;   931.6241;          172   
    1047;   932.4994;          160   
    1048;   933.3746;          164   
    1049;   934.2499;          145   
    1050;   935.1252;          180   
    1051;   936.0005;          173   
    1052;   936.8757;          154   
    1053;   937.7510;          165   
    1054;   938.6263;          150   
    1055;   939.5016;          163   
    1056;   940.3768;          141   
    1057;   941.2521;          160   
    1058;   942.1274;          177   
    1059;   943.0027;          157   
    1060;   943.8779;          162   
    1061;   944.7532;          164   
    1062;   945.6285;          178   
    1063;   946.5038;          149   
    1064;   947.3790;          143   
    1065;   948.2543;          137   
    1066;   949.1296;          141   
    1067;   950.0049;          161   
    1068;   950.8801;          161   
    1069;   951.7554;          142   
    1070;   952.6307;          165   
    1071;   953.5060;          149   
    1072;   954.3812;          166   
    1073;   955.2565;          161   
    1074;   956.1318;          139   
    1075;   957.0071;          157   
    1076;   957.8823;          198   
    1077;   958.7576;          336   
    1078;   959.6329;          702   
    1079;   960.5082;          791   
    1080;   961.3834;          469   
    1081;   962.2587;          237   
    1082;   963.1340;          166   
    1083;   964.0093;          165   
    1084;   964.8845;          206   
    1085;   965.7598;          149   
    1086;   966.6351;          164   
    1087;   967.5104;          135   
    1088;   968.3856;          146   
    1089;   969.2609;          162   
    1090;   970.1362;          137   
    1091;   971.0115;          149   
    1092;   971.8867;          156   
    1093;   972.7620;          138   
    1094;   973.6373;          125   
    1095;   974.5126;          159   
    1096;   975.3878;          140   
    1097;   976.2631;          143   
    1098;   977.1384;          139   
    1099;   978.0137;          147   
    1100;   978.8889;          151   
    1101;   979.7642;          156   
    1102;   980.6395;          132   
    1103;   981.5148;          155   
    1104;   982.3900;          162   
    1105;   983.2653;          133   
    1106;   984.1406;          143   
    1107;   985.0159;          134   
    1108;   985.8911;          141   
    1109;   986.7664;          133   
    1110;   987.6417;          155   
    1111;   988.5170;          154   
    1112;   989.3922;          139   
    1113;   990.2675;          143   
    1114;   991.1428;          130   
    1115;   992.0181;          153   
    1116;   992.8933;          137   
    1117;   993.7686;          153   
    1118;   994.6439;          152   
    1119;   995.5192;          138   
    1120;   996.3944;          149   
    1121;   997.2697;          150   
    1122;   998.1450;          148   
    1123;   999.0203;          144   
    1124;   999.8955;          152   
    1125;  1000.7708;          160   
    1126;  1001.6461;          171   
    1127;  1002.5214;          179   
    1128;  1003.3966;          134   
    1129;  1004.2719;          139   
    1130;  1005.1472;          126   
    1131;  1006.0225;          141   
    1132;  1006.8977;          147   
    1133;  1007.7730;          141   
    1134;  1008.6483;          125   
    1135;  1009.5236;          124   
    1136;  1010.3988;          121   
    1137;  1011.2741;          129   
    1138;  1012.1494;          134   
    1139;  1013.0247;          116   
    1140;  1013.8999;          131   
    1141;  1014.7752;          129   
    1142;  1015.6505;          109   
    1143;  1016.5258;          148   
    1144;  1017.4010;          115   
    1145;  1018.2763;          120   
    1146;  1019.1516;          112   
    1147;  1020.0269;          147   
    1148;  1020.9021;          139   
    1149;  1021.7774;          122   
    1150;  1022.6527;          130   
    1151;  1023.5280;          123   
    1152;  1024.4032;          137   
    1153;  1025.2785;          133   
    1154;  1026.1538;          118   
    1155;  1027.0291;          131   
    1156;  1027.9043;          131   
    1157;  1028.7796;          118   
    1158;  1029.6549;          109   
    1159;  1030.5302;          126   
    1160;  1031.4054;          119   
    1161;  1032.2807;          117   
    1162;  1033.1560;          108   
    1163;  1034.0313;          118   
    1164;  1034.9065;          115   
    1165;  1035.7818;          124   
    1166;  1036.6571;          118   
    1167;  1037.5324;          123   
    1168;  1038.4076;          141   
    1169;  1039.2829;          131   
    1170;  1040.1582;          118   
    1171;  1041.0335;          135   
    1172;  1041.9087;          135   
    1173;  1042.7840;          128   
    1174;  1043.6593;          150   
    1175;  1044.5346;          144   
    1176;  1045.4098;          123   
    1177;  1046.2851;          101   
    1178;  1047.1604;          116   
    1179;  1048.0357;          118   
    1180;  1048.9109;          110   
    1181;  1049.7862;          111   
    1182;  1050.6615;          119   
    1183;  1051.5368;          102   
    1184;  1052.4120;          115   
    1185;  1053.2873;          108   
    1186;  1054.1626;          109   
    1187;  1055.0379;          107   
    1188;  1055.9131;          133   
    1189;  1056.7884;          123   
    1190;  1057.6637;          123   
    1191;  1058.5390;          108   
    1192;  1059.4142;          124   
    1193;  1060.2895;          131   
    1194;  1061.1648;          118   
    1195;  1062.0401;          119   
    1196;  1062.9153;          113   
    1197;  1063.7906;          137   
    1198;  1064.6659;          115   
    1199;  1065.5412;          114   
    1200;  1066.4164;          129   
    1201;  1067.2917;          110   
    1202;  1068.1670;          120   
    1203;  1069.0423;          110   
    1204;  1069.9175;          121   
    1205;  1070.7928;          104   
    1206;  1071.6681;          108   
    1207;  1072.5434;          115   
    1208;  1073.4186;          107   
    1209;  1074.2939;          103   
    1210;  1075.1692;          101   
    1211;  1076.0445;          116   
    1212;  1076.9197;          104   
    1213;  1077.7950;          102   
    1214;  1078.6703;          147   
    1215;  1079.5456;          207   
    1216;  1080.4208;          426   
    1217;  1081.2961;          503   
    1218;  1082.1714;          321   
    1219;  1083.0467;          173   
    1220;  1083.9219;          167   
    1221;  1084.7972;          189   
    1222;  1085.6725;          179   
    1223;  1086.5478;          127   
    1224;  1087.4230;          118   
    1225;  1088.2983;          118   
    1226;  1089.1736;          103   
    1227;  1090.0489;          108   
    1228;  1090.9241;          117   
    1229;  1091.7994;          116   
    1230;  1092.6747;           99   
    1231;  1093.5500;          116   
    1232;  1094.4252;          110   
    1233;  1095.3005;          107   
    1234;  1096.1758;          105   
    1235;  1097.0511;          107   
    1236;  1097.9263;          119   
    1237;  1098.8016;          116   
    1238;  1099.6769;          119   
    1239;  1100.5522;          107   
    1240;  1101.4274;          113   
    1241;  1102.3027;           93   
    1242;  1103.1780;          114   
    1243;  1104.0533;          112   
    1244;  1104.9285;          156   
    1245;  1105.8038;          342   
    1246;  1106.6791;          600   
    1247;  1107.5544;          570   
    1248;  1108.4296;          332   
    1249;  1109.3049;          170   
    1250;  1110.1802;          113   
    1251;  1111.0555;          121   
    1252;  1111.9307;          111   
    1253;  1112.8060;          111   
    1254;  1113.6813;           98   
    1255;  1114.5566;          119   
    1256;  1115.4318;          116   
    1257;  1116.3071;           94   
    1258;  1117.1824;          115   
    1259;  1118.0577;           91   
    1260;  1118.9329;           93   
    1261;  1119.8082;          107   
    1262;  1120.6835;           96   
    1263;  1121.5588;          105   
    1264;  1122.4340;           92   
    1265;  1123.3093;           95   
    1266;  1124.1846;          112   
    1267;  1125.0599;           94   
    1268;  1125.9351;          118   
    1269;  1126.8104;           84   
    1270;  1127.6857;           89   
    1271;  1128.5610;          109   
    1272;  1129.4362;           88   
    1273;  1130.3115;          100   
    1274;  1131.1868;           84   
    1275;  1132.0621;          100   
    1276;  1132.9373;           91   
    1277;  1133.8126;          104   
    1278;  1134.6879;           79   
    1279;  1135.5632;           88   
    1280;  1136.4384;           85   
    1281;  1137.3137;           68   
    1282;  1138.1890;           93   
    1283;  1139.0643;           75   
    1284;  1139.9395;          103   
    1285;  1140.8148;           71   
    1286;  1141.6901;           79   
    1287;  1142.5654;           81   
    1288;  1143.4406;           72   
    1289;  1144.3159;           89   
    1290;  1145.1912;           83   
    1291;  1146.0665;           83   
    1292;  1146.9417;           90   
    1293;  1147.8170;           88   
    1294;  1148.6923;           77   
    1295;  1149.5676;           87   
    1296;  1150.4428;           78   
    1297;  1151.3181;           84   
    1298;  1152.1934;           94   
    1299;  1153.0687;           95   
    1300;  1153.9439;           77   
    1301;  1154.8192;           71   
    1302;  1155.6945;           72   
    1303;  1156.5698;           72   
    1304;  1157.4450;           81   
    1305;  1158.3203;           98   
    1306;  1159.1956;           67   
    1307;  1160.0709;           73   
    1308;  1160.9461;           87   
    1309;  1161.8214;           89   
    1310;  1162.6967;           80   
    1311;  1163.5720;           84   
    1312;  1164.4472;           82   
    1313;  1165.3225;           69   
    1314;  1166.1978;           67   
    1315;  1167.0731;           76   
    1316;  1167.9483;           70   
    1317;  1168.8236;           67   
    1318;  1169.6989;           56   
    1319;  1170.5742;           86   
    1320;  1171.4494;           77   
    1321;  1172.3247;           69   
    1322;  1173.2000;           64   
    1323;  1174.0753;           73   
    1324;  1174.9505;           69   
    1325;  1175.8258;           75   
    1326;  1176.7011;           76   
    1327;  1177.5764;           82   
    1328;  1178.4516;           68   
    1329;  1179.3269;           76   
    1330;  1180.2022;           80   
    1331;  1181.0775;           83   
    1332;  1181.9527;           58   
    1333;  1182.8280;           56   
    1334;  1183.7033;           69   
    1335;  1184.5786;           59   
    1336;  1185.4538;           68   
    1337;  1186.3291;           67   
    1338;  1187.2044;           62   
    1339;  1188.0797;           63   
    1340;  1188.9549;           54   
    1341;  1189.8302;           66   
    1342;  1190.7055;           73   
    1343;  1191.5808;           63   
    1344;  1192.4560;           68   
    1345;  1193.3313;           56   
    1346;  1194.2066;           66   
    1347;  1195.0819;           58   
    1348;  1195.9571;           62   
    1349;  1196.8324;           62   
    1350;  1197.7077;           61   
    1351;  1198.5830;           74   
    1352;  1199.4582;           48   
    1353;  1200.3335;           53   
    1354;  1201.2088;           69   
    1355;  1202.0841;           73   
    1356;  1202.9593;           60   
    1357;  1203.8346;           57   
    1358;  1204.7099;           51   
    1359;  1205.5852;           67   
    1360;  1206.4604;          103   
    1361;  1207.3357;          110   
    1362;  1208.2110;           92   
    1363;  1209.0863;           62   
    1364;  1209.9615;           61   
    1365;  1210.8368;           69   
    1366;  1211.7121;           48   
    1367;  1212.5874;           59   
    1368;  1213.4626;           58   
    1369;  1214.3379;           64   
    1370;  1215.2132;           56   
    1371;  1216.0885;           69   
    1372;  1216.9637;           53   
    1373;  1217.8390;           61   
    1374;  1218.7143;           67   
    1375;  1219.5896;           50   
    1376;  1220.4648;           52   
    1377;  1221.3401;           61   
    1378;  1222.2154;           54   
    1379;  1223.0907;           54   
    1380;  1223.9659;           70   
    1381;  1224.8412;           54   
    1382;  1225.7165;           57   
    1383;  1226.5918;           54   
    1384;  1227.4670;           65   
    1385;  1228.3423;           59   
    1386;  1229.2176;           70   
    1387;  1230.0929;           69   
    1388;  1230.9681;           66   
    1389;  1231.8434;           66   
    1390;  1232.7187;           46   
    1391;  1233.5940;           66   
    1392;  1234.4692;           46   
    1393;  1235.3445;           56   
    1394;  1236.2198;           55   
    1395;  1237.0951;           67   
    1396;  1237.9703;           52   
    1397;  1238.8456;           58   
    1398;  1239.7209;           50   
    1399;  1240.5962;           64   
    1400;  1241.4714;           60   
    1401;  1242.3467;           60   
    1402;  1243.2220;           47   
    1403;  1244.0973;           64   
    1404;  1244.9725;           59   
    1405;  1245.8478;           49   
    1406;  1246.7231;           55   
    1407;  1247.5984;           52   
    1408;  1248.4736;           64   
    1409;  1249.3489;           41   
    1410;  1250.2242;           65   
    1411;  1251.0995;           52   
    1412;  1251.9747;           59   
    1413;  1252.8500;           55   
    1414;  1253.7253;           56   
    1415;  1254.6006;           74   
    1416;  1255.4758;           63   
    1417;  1256.3511;           78   
    1418;  1257.2264;           47   
    1419;  1258.1017;           52   
    1420;  1258.9769;           55   
    1421;  1259.8522;           46   
    1422;  1260.7275;           48   
    1423;  1261.6028;           65   
    1424;  1262.4780;           61   
    1425;  1263.3533;           58   
    1426;  1264.2286;           57   
    1427;  1265.1039;           49   
    1428;  1265.9791;           56   
    1429;  1266.8544;           61   
    1430;  1267.7297;           85   
    1431;  1268.6050;           67   
    1432;  1269.4802;           49   
    1433;  1270.3555;           52   
    1434;  1271.2308;           61   
    1435;  1272.1061;           54   
    1436;  1272.9813;           52   
    1437;  1273.8566;           54   
    1438;  1274.7319;           60   
    1439;  1275.6072;           44   
    1440;  1276.4824;           46   
    1441;  1277.3577;           57   
    1442;  1278.2330;           58   
    1443;  1279.1083;           62   
    1444;  1279.9835;           47   
    1445;  1280.8588;           58   
    1446;  1281.7341;           51   
    1447;  1282.6094;           57   
    1448;  1283.4846;           44   
    1449;  1284.3599;           39   
    1450;  1285.2352;           68   
    1451;  1286.1105;           58   
    1452;  1286.9857;           53   
    1453;  1287.8610;           48   
    1454;  1288.7363;           58   
    1455;  1289.6116;           58   
    1456;  1290.4868;           71   
    1457;  1291.3621;           86   
    1458;  1292.2374;          120   
    1459;  1293.1127;          104   
    1460;  1293.9879;           74   
    1461;  1294.8632;           65   
    1462;  1295.7385;           49   
    1463;  1296.6138;           76   
    1464;  1297.4890;           44   
    1465;  1298.3643;           80   
    1466;  1299.2396;           64   
    1467;  1300.1149;           63   
    1468;  1300.9901;           78   
    1469;  1301.8654;           61   
    1470;  1302.7407;           80   
    1471;  1303.6160;           78   
    1472;  1304.4912;           72   
    1473;  1305.3665;           62   
    1474;  1306.2418;           80   
    1475;  1307.1171;           81   
    1476;  1307.9923;           70   
    1477;  1308.8676;           97   
    1478;  1309.7429;           88   
    1479;  1310.6182;           85   
    1480;  1311.4934;           98   
    1481;  1312.3687;          104   
    1482;  1313.2440;          105   
    1483;  1314.1193;          142   
    1484;  1314.9945;          151   
    1485;  1315.8698;          194   
    1486;  1316.7451;          174   
    1487;  1317.6204;           76   
    1488;  1318.4956;           38   
    1489;  1319.3709;           34   
    1490;  1320.2462;           34   
    1491;  1321.1215;           20   
    1492;  1321.9967;           20   
    1493;  1322.8720;           22   
    1494;  1323.7473;           23   
    1495;  1324.6226;           21   
    1496;  1325.4978;           14   
    1497;  1326.3731;           18   
    1498;  1327.2484;           21   
    1499;  1328.1237;           22   
    1500;  1328.9989;           25   
    1501;  1329.8742;           17   
    1502;  1330.7495;           28   
    1503;  1331.6248;           20   
    1504;  1332.5000;           20   
    1505;  1333.3753;           26   
    1506;  1334.2506;           29   
    1507;  1335.1259;           20   
    1508;  1336.0011;           14   
    1509;  1336.8764;           15   
    1510;  1337.7517;           24   
    1511;  1338.6270;           17   
    1512;  1339.5022;           18   
    1513;  1340.3775;           19   
    1514;  1341.2528;           24   
    1515;  1342.1281;           16   
    1516;  1343.0033;           24   
    1517;  1343.8786;           15   
    1518;  1344.7539;           19   
    1519;  1345.6292;           18   
    1520;  1346.5044;           22   
    1521;  1347.3797;           13   
    1522;  1348.2550;           18   
    1523;  1349.1303;            9   
    1524;  1350.0055;           21   
    1525;  1350.8808;           19   
    1526;  1351.7561;           17   
    1527;  1352.6314;           17   
    1528;  1353.5066;           19   
    1529;  1354.3819;           16   
    1530;  1355.2572;           15   
    1531;  1356.1325;           17   
    1532;  1357.0077;           22   
    1533;  1357.8830;           11   
    1534;  1358.7583;           19   
    1535;  1359.6336;            9   
    1536;  1360.5088;           17   
    1537;  1361.3841;           21   
    1538;  1362.2594;           18   
    1539;  1363.1347;           21   
    1540;  1364.0099;           15   
    1541;  1364.8852;           13   
    1542;  1365.7605;           12   
    1543;  1366.6358;           19   
    1544;  1367.5110;           18   
    1545;  1368.3863;           15   
    1546;  1369.2616;           15   
    1547;  1370.1369;           21   
    1548;  1371.0121;           33   
    1549;  1371.8874;           17   
    1550;  1372.7627;           20   
    1551;  1373.6380;           10   
    1552;  1374.5132;           17   
    1553;  1375.3885;           18   
    1554;  1376.2638;           11   
    1555;  1377.1391;           21   
    1556;  1378.0143;           14   
    1557;  1378.8896;           15   
    1558;  1379.7649;           13   
    1559;  1380.6402;           12   
    1560;  1381.5154;           14   
    1561;  1382.3907;           19   
    1562;  1383.2660;           15   
    1563;  1384.1413;           14   
    1564;  1385.0165;           20   
    1565;  1385.8918;           11   
    1566;  1386.7671;           20   
    1567;  1387.6424;           12   
    1568;  1388.5176;           12   
    1569;  1389.3929;           15   
    1570;  1390.2682;           15   
    1571;  1391.1435;           10   
    1572;  1392.0187;           17   
    1573;  1392.8940;           12   
    1574;  1393.7693;           17   
    1575;  1394.6446;           12   
    1576;  1395.5198;           13   
    1577;  1396.3951;           19   
    1578;  1397.2704;           18   
    1579;  1398.1457;           57   
    1580;  1399.0209;          159   
    1581;  1399.8962;          404   
    1582;  1400.7715;          619   
    1583;  1401.6468;          485   
    1584;  1402.5220;          214   
    1585;  1403.3973;           60   
    1586;  1404.2726;           32   
    1587;  1405.1479;           16   
    1588;  1406.0231;           20   
    1589;  1406.8984;           18   
    1590;  1407.7737;           12   
    1591;  1408.6490;           18   
    1592;  1409.5242;           18   
    1593;  1410.3995;           16   
    1594;  1411.2748;           17   
    1595;  1412.1501;           11   
    1596;  1413.0253;           12   
    1597;  1413.9006;           15   
    1598;  1414.7759;           11   
    1599;  1415.6512;           19   
    1600;  1416.5264;           17   
    1601;  1417.4017;           11   
    1602;  1418.2770;           16   
    1603;  1419.1523;           15   
    1604;  1420.0275;           17   
    1605;  1420.9028;           26   
    1606;  1421.7781;           12   
    1607;  1422.6534;           14   
    1608;  1423.5286;           21   
    1609;  1424.4039;           10   
    1610;  1425.2792;           16   
    1611;  1426.1545;           11   
    1612;  1427.0297;           10   
    1613;  1427.9050;            8   
    1614;  1428.7803;           10   
    1615;  1429.6556;           11   
    1616;  1430.5308;           14   
    1617;  1431.4061;           17   
    1618;  1432.2814;           13   
    1619;  1433.1567;           17   
    1620;  1434.0319;           12   
    1621;  1434.9072;           19   
    1622;  1435.7825;           11   
    1623;  1436.6578;           14   
    1624;  1437.5330;            9   
    1625;  1438.4083;           20   
    1626;  1439.2836;            7   
    1627;  1440.1589;            8   
    1628;  1441.0341;           18   
    1629;  1441.9094;           10   
    1630;  1442.7847;            9   
    1631;  1443.6600;            7   
    1632;  1444.5352;           12   
    1633;  1445.4105;           16   
    1634;  1446.2858;           11   
    1635;  1447.1611;           13   
    1636;  1448.0363;           18   
    1637;  1448.9116;           23   
    1638;  1449.7869;           27   
    1639;  1450.6622;           40   
    1640;  1451.5374;           67   
    1641;  1452.4127;          138   
    1642;  1453.2880;          181   
    1643;  1454.1633;          163   
    1644;  1455.0385;           61   
    1645;  1455.9138;           25   
    1646;  1456.7891;           19   
    1647;  1457.6644;           17   
    1648;  1458.5396;           14   
    1649;  1459.4149;           13   
    1650;  1460.2902;           10   
    1651;  1461.1655;           10   
    1652;  1462.0407;           15   
    1653;  1462.9160;            8   
    1654;  1463.7913;            9   
    1655;  1464.6666;           16   
    1656;  1465.5418;           10   
    1657;  1466.4171;            6   
    1658;  1467.2924;            8   
    1659;  1468.1677;           11   
    1660;  1469.0429;           12   
    1661;  1469.9182;           11   
    1662;  1470.7935;           10   
    1663;  1471.6688;           12   
    1664;  1472.5440;           15   
    1665;  1473.4193;           13   
    1666;  1474.2946;           14   
    1667;  1475.1699;           13   
    1668;  1476.0451;           18   
    1669;  1476.9204;           16   
    1670;  1477.7957;            9   
    1671;  1478.6710;           13   
    1672;  1479.5462;           13   
    1673;  1480.4215;            7   
    1674;  1481.2968;            5   
    1675;  1482.1721;            8   
    1676;  1483.0473;           13   
    1677;  1483.9226;           15   
    1678;  1484.7979;            5   
    1679;  1485.6732;           16   
    1680;  1486.5484;           10   
    1681;  1487.4237;            9   
    1682;  1488.2990;            8   
    1683;  1489.1743;            9   
    1684;  1490.0495;            9   
    1685;  1490.9248;           14   
    1686;  1491.8001;           10   
    1687;  1492.6754;           11   
    1688;  1493.5506;           11   
    1689;  1494.4259;            9   
    1690;  1495.3012;            8   
    1691;  1496.1765;           17   
    1692;  1497.0517;           10   
    1693;  1497.9270;           10   
    1694;  1498.8023;            7   
    1695;  1499.6776;            5   
    1696;  1500.5528;           11   
    1697;  1501.4281;           11   
    1698;  1502.3034;            7   
    1699;  1503.1787;            8   
    1700;  1504.0539;           10   
    1701;  1504.9292;           10   
    1702;  1505.8045;           15   
    1703;  1506.6798;           11   
    1704;  1507.5550;           10   
    1705;  1508.4303;            9   
    1706;  1509.3056;            5   
    1707;  1510.1809;            7   
    1708;  1511.0561;            8   
    1709;  1511.9314;           14   
    1710;  1512.8067;           11   
    1711;  1513.6820;           13   
    1712;  1514.5572;           12   
    1713;  1515.4325;           17   
    1714;  1516.3078;            9   
    1715;  1517.1831;           11   
    1716;  1518.0583;           15   
    1717;  1518.9336;           11   
    1718;  1519.8089;           10   
    1719;  1520.6842;            9   
    1720;  1521.5594;           15   
    1721;  1522.4347;           17   
    1722;  1523.3100;           17   
    1723;  1524.1853;            9   
    1724;  1525.0605;           14   
    1725;  1525.9358;            5   
    1726;  1526.8111;            5   
    1727;  1527.6864;            6   
    1728;  1528.5616;           20   
    1729;  1529.4369;            6   
    1730;  1530.3122;            9   
    1731;  1531.1875;            6   
    1732;  1532.0627;           12   
    1733;  1532.9380;            9   
    1734;  1533.8133;            6   
    1735;  1534.6886;            6   
    1736;  1535.5638;           12   
    1737;  1536.4391;            8   
    1738;  1537.3144;            7   
    1739;  1538.1897;            7   
    1740;  1539.0649;           10   
    1741;  1539.9402;            6   
    1742;  1540.8155;           11   
    1743;  1541.6908;            5   
    1744;  1542.5660;            4   
    1745;  1543.4413;            6   
    1746;  1544.3166;            4   
    1747;  1545.1919;           11   
    1748;  1546.0671;            8   
    1749;  1546.9424;            5   
    1750;  1547.8177;            5   
    1751;  1548.6930;            6   
    1752;  1549.5682;            2   
    1753;  1550.4435;           11   
    1754;  1551.3188;            7   
    1755;  1552.1941;           11   
    1756;  1553.0693;            3   
    1757;  1553.9446;            6   
    1758;  1554.8199;            9   
    1759;  1555.6952;           10   
    1760;  1556.5704;            5   
    1761;  1557.4457;            5   
    1762;  1558.3210;           10   
    1763;  1559.1963;            8   
    1764;  1560.0715;            5   
    1765;  1560.9468;            7   
    1766;  1561.8221;            7   
    1767;  1562.6974;            4   
    1768;  1563.5726;            6   
    1769;  1564.4479;           11   
    1770;  1565.3232;            7   
    1771;  1566.1985;            4   
    1772;  1567.0737;            5   
    1773;  1567.9490;            8   
    1774;  1568.8243;            6   
    1775;  1569.6996;            5   
    1776;  1570.5748;           10   
    1777;  1571.4501;            3   
    1778;  1572.3254;            5   
    1779;  1573.2007;            8   
    1780;  1574.0759;           13   
    1781;  1574.9512;            7   
    1782;  1575.8265;            5   
    1783;  1576.7018;            2   
    1784;  1577.5770;            3   
    1785;  1578.4523;            8   
    1786;  1579.3276;           13   
    1787;  1580.2029;            6   
    1788;  1581.0781;           12   
    1789;  1581.9534;            7   
    1790;  1582.8287;            8   
    1791;  1583.7040;           12   
    1792;  1584.5792;           12   
    1793;  1585.4545;            8   
    1794;  1586.3298;            7   
    1795;  1587.2051;           10   
    1796;  1588.0803;            6   
    1797;  1588.9556;            9   
    1798;  1589.8309;            8   
    1799;  1590.7062;            6   
    1800;  1591.5814;            6   
    1801;  1592.4567;            7   
    1802;  1593.3320;            6   
    1803;  1594.2073;            9   
    1804;  1595.0825;            6   
    1805;  1595.9578;           14   
    1806;  1596.8331;            7   
    1807;  1597.7084;            5   
    1808;  1598.5836;            6   
    1809;  1599.4589;            5   
    1810;  1600.3342;            7   
    1811;  1601.2095;           11   
    1812;  1602.0847;            5   
    1813;  1602.9600;            5   
    1814;  1603.8353;            6   
    1815;  1604.7106;            6   
    1816;  1605.5858;            6   
    1817;  1606.4611;            8   
    1818;  1607.3364;           10   
    1819;  1608.2117;            6   
    1820;  1609.0869;            4   
    1821;  1609.9622;           14   
    1822;  1610.8375;            6   
    1823;  1611.7128;            8   
    1824;  1612.5880;           11   
    1825;  1613.4633;            3   
    1826;  1614.3386;            6   
    1827;  1615.2139;            9   
    1828;  1616.0891;            4   
    1829;  1616.9644;            8   
    1830;  1617.8397;           10   
    1831;  1618.7150;            3   
    1832;  1619.5902;            5   
    1833;  1620.4655;            4   
    1834;  1621.3408;            9   
    1835;  1622.2161;            7   
    1836;  1623.0913;            7   
    1837;  1623.9666;            6   
    1838;  1624.8419;            7   
    1839;  1625.7172;            4   
    1840;  1626.5924;            2   
    1841;  1627.4677;            7   
    1842;  1628.3430;            4   
    1843;  1629.2183;            1   
    1844;  1630.0935;           10   
    1845;  1630.9688;           10   
    1846;  1631.8441;            6   
    1847;  1632.7194;            5   
    1848;  1633.5946;            9   
    1849;  1634.4699;            3   
    1850;  1635.3452;            8   
    1851;  1636.2205;            5   
    1852;  1637.0957;            4   
    1853;  1637.9710;            5   
    1854;  1638.8463;            3   
    1855;  1639.7216;            5   
    1856;  1640.5968;            5   
    1857;  1641.4721;            9   
    1858;  1642.3474;            4   
    1859;  1643.2227;            8   
    1860;  1644.0979;            4   
    1861;  1644.9732;            6   
    1862;  1645.8485;            4   
    1863;  1646.7238;            4   
    1864;  1647.5990;            2   
    1865;  1648.4743;            7   
    1866;  1649.3496;            7   
    1867;  1650.2249;            6   
    1868;  1651.1001;            2   
    1869;  1651.9754;            2   
    1870;  1652.8507;            8   
    1871;  1653.7260;            6   
    1872;  1654.6012;            3   
    1873;  1655.4765;            6   
    1874;  1656.3518;            7   
    1875;  1657.2271;            6   
    1876;  1658.1023;            4   
    1877;  1658.9776;            5   
    1878;  1659.8529;            6   
    1879;  1660.7282;            2   
    1880;  1661.6034;            5   
    1881;  1662.4787;            5   
    1882;  1663.3540;            7   
    1883;  1664.2293;            2   
    1884;  1665.1045;            3   
    1885;  1665.9798;            6   
    1886;  1666.8551;            2   
    1887;  1667.7304;            7   
    1888;  1668.6056;            4   
    1889;  1669.4809;            4   
    1890;  1670.3562;            2   
    1891;  1671.2315;            8   
    1892;  1672.1067;            2   
    1893;  1672.9820;            5   
    1894;  1673.8573;            4   
    1895;  1674.7326;            7   
    1896;  1675.6078;            5   
    1897;  1676.4831;            4   
    1898;  1677.3584;            3   
    1899;  1678.2337;            5   
    1900;  1679.1089;            4   
    1901;  1679.9842;            6   
    1902;  1680.8595;            5   
    1903;  1681.7348;            4   
    1904;  1682.6100;            6   
    1905;  1683.4853;            3   
    1906;  1684.3606;            4   
    1907;  1685.2359;            4   
    1908;  1686.1111;            6   
    1909;  1686.9864;            4   
    1910;  1687.8617;            4   
    1911;  1688.7370;            2   
    1912;  1689.6122;            7   
    1913;  1690.4875;            2   
    1914;  1691.3628;            1   
    1915;  1692.2381;            4   
    1916;  1693.1133;            5   
    1917;  1693.9886;            6   
    1918;  1694.8639;            4   
    1919;  1695.7392;            3   
    1920;  1696.6144;            2   
    1921;  1697.4897;            4   
    1922;  1698.3650;            4   
    1923;  1699.2403;            5   
    1924;  1700.1155;            7   
    1925;  1700.9908;            2   
    1926;  1701.8661;            6   
    1927;  1702.7414;            9   
    1928;  1703.6166;            5   
    1929;  1704.4919;            6   
    1930;  1705.3672;            6   
    1931;  1706.2425;            4   
    1932;  1707.1177;            2   
    1933;  1707.9930;            3   
    1934;  1708.8683;            6   
    1935;  1709.7436;            2   
    1936;  1710.6188;            2   
    1937;  1711.4941;            4   
    1938;  1712.3694;            3   
    1939;  1713.2447;            2   
    1940;  1714.1199;           10   
    1941;  1714.9952;            3   
    1942;  1715.8705;            3   
    1943;  1716.7458;            3   
    1944;  1717.6210;            3   
    1945;  1718.4963;            3   
    1946;  1719.3716;            8   
    1947;  1720.2469;            2   
    1948;  1721.1221;            8   
    1949;  1721.9974;            7   
    1950;  1722.8727;            3   
    1951;  1723.7480;            2   
    1952;  1724.6232;            3   
    1953;  1725.4985;            8   
    1954;  1726.3738;            2   
    1955;  1727.2491;            6   
    1956;  1728.1243;            7   
    1957;  1728.9996;            3   
    1958;  1729.8749;            4   
    1959;  1730.7502;            2   
    1960;  1731.6254;            3   
    1961;  1732.5007;            3   
    1962;  1733.3760;            2   
    1963;  1734.2513;            2   
    1964;  1735.1265;            8   
    1965;  1736.0018;            2   
    1966;  1736.8771;            2   
    1967;  1737.7524;            3   
    1968;  1738.6276;            5   
    1969;  1739.5029;            8   
    1970;  1740.3782;            6   
    1971;  1741.2535;            4   
    1972;  1742.1287;            2   
    1973;  1743.0040;            3   
    1974;  1743.8793;            3   
    1975;  1744.7546;            0   
    1976;  1745.6298;            5   
    1977;  1746.5051;            3   
    1978;  1747.3804;            8   
    1979;  1748.2557;            5   
    1980;  1749.1309;            0   
    1981;  1750.0062;            0   
    1982;  1750.8815;            0   
    1983;  1751.7568;            0   
    1984;  1752.6320;            0   
    1985;  1753.5073;            0   
    1986;  1754.3826;            0   
    1987;  1755.2579;            0   
    1988;  1756.1331;            0   
    1989;  1757.0084;            0   
    1990;  1757.8837;            0   
    1991;  1758.7590;            0   
    1992;  1759.6342;            0   
    1993;  1760.5095;            0   
    1994;  1761.3848;            0   
    1995;  1762.2601;            0   
    1996;  1763.1353;            0   
    1997;  1764.0106;            0   
    1998;  1764.8859;            0   
    1999;  1765.7612;            0   
    2000;  1766.6364;            0   
    2001;  1767.5117;            0   
    2002;  1768.3870;            0   
    2003;  1769.2623;            0   
    2004;  1770.1375;            0   
    2005;  1771.0128;            0   
    2006;  1771.8881;            0   
    2007;  1772.7634;            0   
    2008;  1773.6386;            0   
    2009;  1774.5139;            0   
    2010;  1775.3892;            0   
    2011;  1776.2645;            0   
    2012;  1777.1397;            0   
    2013;  1778.0150;            0   
    2014;  1778.8903;            0   
    2015;  1779.7656;            0   
    2016;  1780.6408;            0   
    2017;  1781.5161;            0   
    2018;  1782.3914;            0   
    2019;  1783.2667;            0   
    2020;  1784.1419;            0   
    2021;  1785.0172;            0   
    2022;  1785.8925;            0   
    2023;  1786.7678;            0   
    2024;  1787.6430;            0   
    2025;  1788.5183;            0   
    2026;  1789.3936;            0   
    2027;  1790.2689;            0   
    2028;  1791.1441;            0   
    2029;  1792.0194;            0   
    2030;  1792.8947;            0   
    2031;  1793.7700;            0   
    2032;  1794.6452;            0   
    2033;  1795.5205;            0   
    2034;  1796.3958;            0   
    2035;  1797.2711;            0   
    2036;  1798.1463;            0   
    2037;  1799.0216;            0   
    2038;  1799.8969;            0   
    2039;  1800.7722;            0   
    2040;  1801.6474;            0   
    2041;  1802.5227;            0   
    2042;  1803.3980;            0   
    2043;  1804.2733;            0   
    2044;  1805.1485;            0   
    2045;  1806.0238;            0   
    2046;  1806.8991;            0   
    2047;  1807.7744;            0   
    2048;  1808.6496;            0   
ROI Nummer; Anfangskanal; Endkanal; Anfangsenergie keV ; Endenergie keV; Nettoimpulse; Bruttoimpulse; Untergrundimpulse
In den Daten wurden keine Linien gefunden
ROI Nummer; prozentualer Fehler der Lage; Lage keV; FWHM keV; FWTM keV; FWTM/FWHM Verhltnis; H/L Verhltnis
No Peak records found in data.
Name; Energie keV; Flags; Aktivitt uCi/Unit; Aktivittsfehler %; NWG uCi/Unit; MDA Error %
Es wurden keine Nuklidergebnisse gefunden.
Name; Erwartete Endergie keV; Gemessene Energie keV; Differenz von erwarteter keV; FWHM; Flags; Aktivitt uCi/Unit; Aktivittsfehler %
Es wurden keine Nuklidergebnisse gefunden.
