Kanal;   Energie(keV); Impulse
       1;    16.9617;         1571   
       2;    17.8370;         1651   
       3;    18.7122;         1633   
       4;    19.5875;         1526   
       5;    20.4628;         1554   
       6;    21.3381;         1421   
       7;    22.2133;         1420   
       8;    23.0886;         1413   
       9;    23.9639;         1323   
      10;    24.8392;         1369   
      11;    25.7144;         1361   
      12;    26.5897;         1275   
      13;    27.4650;         1291   
      14;    28.3403;         1290   
      15;    29.2155;         1274   
      16;    30.0908;         1236   
      17;    30.9661;         1224   
      18;    31.8414;         1171   
      19;    32.7166;         1173   
      20;    33.5919;         1159   
      21;    34.4672;         1226   
      22;    35.3425;         1202   
      23;    36.2177;         1224   
      24;    37.0930;         1173   
      25;    37.9683;         1238   
      26;    38.8436;         1208   
      27;    39.7188;         1188   
      28;    40.5941;         1209   
      29;    41.4694;         1398   
      30;    42.3447;         1663   
      31;    43.2199;         1697   
      32;    44.0952;         1182   
      33;    44.9705;         1044   
      34;    45.8458;         1012   
      35;    46.7210;         1070   
      36;    47.5963;         1559   
      37;    48.4716;         1719   
      38;    49.3469;         1249   
      39;    50.2221;          986   
      40;    51.0974;          938   
      41;    51.9727;          915   
      42;    52.8480;          868   
      43;    53.7232;          906   
      44;    54.5985;          847   
      45;    55.4738;          858   
      46;    56.3491;          857   
      47;    57.2243;          842   
      48;    58.0996;          861   
      49;    58.9749;          912   
      50;    59.8502;          866   
      51;    60.7254;          888   
      52;    61.6007;          810   
      53;    62.4760;          889   
      54;    63.3513;          883   
      55;    64.2265;          910   
      56;    65.1018;          892   
      57;    65.9771;          886   
      58;    66.8524;          900   
      59;    67.7276;          889   
      60;    68.6029;          887   
      61;    69.4782;          914   
      62;    70.3535;          985   
      63;    71.2287;          957   
      64;    72.1040;          956   
      65;    72.9793;          974   
      66;    73.8546;         1002   
      67;    74.7298;         1432   
      68;    75.6051;         1846   
      69;    76.4804;         1670   
      70;    77.3557;         2398   
      71;    78.2309;         2249   
      72;    79.1062;         1311   
      73;    79.9815;         1053   
      74;    80.8568;         1068   
      75;    81.7320;         1129   
      76;    82.6073;         1146   
      77;    83.4826;         1237   
      78;    84.3579;         1412   
      79;    85.2331;         1515   
      80;    86.1084;         1706   
      81;    86.9837;         2197   
      82;    87.8590;         2513   
      83;    88.7342;         2113   
      84;    89.6095;         1888   
      85;    90.4848;         1913   
      86;    91.3601;         1558   
      87;    92.2353;         1466   
      88;    93.1106;         1426   
      89;    93.9859;         1457   
      90;    94.8612;         1474   
      91;    95.7364;         1377   
      92;    96.6117;         1378   
      93;    97.4870;         1372   
      94;    98.3623;         1384   
      95;    99.2375;         1287   
      96;   100.1128;         1238   
      97;   100.9881;         1428   
      98;   101.8634;         1369   
      99;   102.7386;         1341   
     100;   103.6139;         1312   
     101;   104.4892;         1323   
     102;   105.3645;         1295   
     103;   106.2397;         1358   
     104;   107.1150;         1395   
     105;   107.9903;         1387   
     106;   108.8656;         1407   
     107;   109.7408;         1420   
     108;   110.6161;         1372   
     109;   111.4914;         1420   
     110;   112.3667;         1387   
     111;   113.2419;         1426   
     112;   114.1172;         1451   
     113;   114.9925;         1463   
     114;   115.8678;         1489   
     115;   116.7430;         1491   
     116;   117.6183;         1469   
     117;   118.4936;         1404   
     118;   119.3689;         1542   
     119;   120.2441;         1542   
     120;   121.1194;         1557   
     121;   121.9947;         1585   
     122;   122.8700;         2602   
     123;   123.7452;        14303   
     124;   124.6205;        44116   
     125;   125.4958;        31320   
     126;   126.3711;         5905   
     127;   127.2463;         1653   
     128;   128.1216;         1359   
     129;   128.9969;         1333   
     130;   129.8722;         1280   
     131;   130.7474;         1179   
     132;   131.6227;         1168   
     133;   132.4980;         1065   
     134;   133.3733;         1079   
     135;   134.2485;         1056   
     136;   135.1238;         1057   
     137;   135.9991;         1089   
     138;   136.8744;         1004   
     139;   137.7496;         1044   
     140;   138.6249;         1012   
     141;   139.5002;          985   
     142;   140.3755;         1039   
     143;   141.2507;          995   
     144;   142.1260;         1038   
     145;   143.0013;          966   
     146;   143.8766;         1028   
     147;   144.7518;         1029   
     148;   145.6271;         1034   
     149;   146.5024;          966   
     150;   147.3777;         1013   
     151;   148.2529;         1075   
     152;   149.1282;         1125   
     153;   150.0035;         1185   
     154;   150.8788;         1243   
     155;   151.7540;         1172   
     156;   152.6293;         1240   
     157;   153.5046;         1198   
     158;   154.3799;         1236   
     159;   155.2551;         1121   
     160;   156.1304;         1221   
     161;   157.0057;         1229   
     162;   157.8810;         1222   
     163;   158.7562;         1240   
     164;   159.6315;         1193   
     165;   160.5068;         1201   
     166;   161.3821;         1170   
     167;   162.2573;         1164   
     168;   163.1326;         1154   
     169;   164.0079;         1181   
     170;   164.8832;         1157   
     171;   165.7584;         1182   
     172;   166.6337;         1150   
     173;   167.5090;         1125   
     174;   168.3843;         1085   
     175;   169.2595;         1101   
     176;   170.1348;         1137   
     177;   171.0101;         1093   
     178;   171.8854;         1026   
     179;   172.7606;         1081   
     180;   173.6359;         1086   
     181;   174.5112;         1080   
     182;   175.3865;         1016   
     183;   176.2617;         1121   
     184;   177.1370;         1080   
     185;   178.0123;         1100   
     186;   178.8876;         1033   
     187;   179.7628;         1097   
     188;   180.6381;          980   
     189;   181.5134;         1017   
     190;   182.3887;         1078   
     191;   183.2639;          977   
     192;   184.1392;         1039   
     193;   185.0145;         1102   
     194;   185.8898;         1023   
     195;   186.7650;         1039   
     196;   187.6403;         1064   
     197;   188.5156;         1071   
     198;   189.3909;         1015   
     199;   190.2661;         1008   
     200;   191.1414;         1017   
     201;   192.0167;         1079   
     202;   192.8920;          999   
     203;   193.7672;         1022   
     204;   194.6425;          991   
     205;   195.5178;         1019   
     206;   196.3931;         1004   
     207;   197.2683;         1013   
     208;   198.1436;         1080   
     209;   199.0189;          981   
     210;   199.8942;          984   
     211;   200.7694;          969   
     212;   201.6447;          942   
     213;   202.5200;          967   
     214;   203.3953;          923   
     215;   204.2705;          897   
     216;   205.1458;          935   
     217;   206.0211;          903   
     218;   206.8964;          917   
     219;   207.7716;          951   
     220;   208.6469;          873   
     221;   209.5222;          917   
     222;   210.3975;          932   
     223;   211.2727;          896   
     224;   212.1480;          938   
     225;   213.0233;          887   
     226;   213.8986;          873   
     227;   214.7738;          874   
     228;   215.6491;          924   
     229;   216.5244;          905   
     230;   217.3997;          921   
     231;   218.2749;          854   
     232;   219.1502;          786   
     233;   220.0255;          860   
     234;   220.9008;          905   
     235;   221.7760;          897   
     236;   222.6513;          808   
     237;   223.5266;          849   
     238;   224.4019;          841   
     239;   225.2771;          829   
     240;   226.1524;          827   
     241;   227.0277;          879   
     242;   227.9030;          820   
     243;   228.7782;          809   
     244;   229.6535;          785   
     245;   230.5288;          862   
     246;   231.4041;          774   
     247;   232.2793;          800   
     248;   233.1546;          798   
     249;   234.0299;          780   
     250;   234.9052;          757   
     251;   235.7804;          756   
     252;   236.6557;          765   
     253;   237.5310;          758   
     254;   238.4063;          764   
     255;   239.2815;          717   
     256;   240.1568;          718   
     257;   241.0321;          773   
     258;   241.9074;          727   
     259;   242.7826;          733   
     260;   243.6579;          749   
     261;   244.5332;          677   
     262;   245.4085;          782   
     263;   246.2837;          783   
     264;   247.1590;         1860   
     265;   248.0343;         6941   
     266;   248.9096;         8903   
     267;   249.7848;         3228   
     268;   250.6601;          911   
     269;   251.5354;          696   
     270;   252.4107;          773   
     271;   253.2859;          653   
     272;   254.1612;          622   
     273;   255.0365;          655   
     274;   255.9118;          614   
     275;   256.7870;          635   
     276;   257.6623;          637   
     277;   258.5376;          577   
     278;   259.4129;          610   
     279;   260.2881;          603   
     280;   261.1634;          543   
     281;   262.0387;          518   
     282;   262.9140;          566   
     283;   263.7892;          539   
     284;   264.6645;          542   
     285;   265.5398;          547   
     286;   266.4151;          547   
     287;   267.2903;          500   
     288;   268.1656;          566   
     289;   269.0409;          532   
     290;   269.9162;          488   
     291;   270.7914;          532   
     292;   271.6667;          569   
     293;   272.5420;          556   
     294;   273.4173;          533   
     295;   274.2925;          569   
     296;   275.1678;          612   
     297;   276.0431;          540   
     298;   276.9184;          510   
     299;   277.7936;          461   
     300;   278.6689;          525   
     301;   279.5442;          539   
     302;   280.4195;          490   
     303;   281.2947;          508   
     304;   282.1700;          531   
     305;   283.0453;          470   
     306;   283.9206;          486   
     307;   284.7958;          476   
     308;   285.6711;          468   
     309;   286.5464;          499   
     310;   287.4217;          488   
     311;   288.2969;          462   
     312;   289.1722;          485   
     313;   290.0475;          456   
     314;   290.9228;          488   
     315;   291.7980;          472   
     316;   292.6733;          462   
     317;   293.5486;          453   
     318;   294.4239;          434   
     319;   295.2991;          426   
     320;   296.1744;          442   
     321;   297.0497;          456   
     322;   297.9250;          413   
     323;   298.8002;          527   
     324;   299.6755;          768   
     325;   300.5508;          835   
     326;   301.4261;          570   
     327;   302.3013;          506   
     328;   303.1766;          447   
     329;   304.0519;          432   
     330;   304.9272;          425   
     331;   305.8024;          438   
     332;   306.6777;          410   
     333;   307.5530;          432   
     334;   308.4283;          397   
     335;   309.3035;          443   
     336;   310.1788;          400   
     337;   311.0541;          391   
     338;   311.9294;          419   
     339;   312.8046;          389   
     340;   313.6799;          408   
     341;   314.5552;          419   
     342;   315.4305;          399   
     343;   316.3057;          388   
     344;   317.1810;          403   
     345;   318.0563;          396   
     346;   318.9316;          450   
     347;   319.8068;          475   
     348;   320.6821;          413   
     349;   321.5574;          440   
     350;   322.4327;          378   
     351;   323.3079;          400   
     352;   324.1832;          401   
     353;   325.0585;          382   
     354;   325.9338;          391   
     355;   326.8090;          435   
     356;   327.6843;          386   
     357;   328.5596;          392   
     358;   329.4349;          504   
     359;   330.3101;          430   
     360;   331.1854;          380   
     361;   332.0607;          433   
     362;   332.9360;          393   
     363;   333.8112;          487   
     364;   334.6865;          454   
     365;   335.5618;          382   
     366;   336.4371;          428   
     367;   337.3123;          374   
     368;   338.1876;          378   
     369;   339.0629;          342   
     370;   339.9382;          351   
     371;   340.8134;          399   
     372;   341.6887;          383   
     373;   342.5640;          368   
     374;   343.4393;          351   
     375;   344.3145;          388   
     376;   345.1898;          420   
     377;   346.0651;          437   
     378;   346.9404;         1164   
     379;   347.8156;         7821   
     380;   348.6909;        21445   
     381;   349.5662;        16193   
     382;   350.4415;         3627   
     383;   351.3167;          699   
     384;   352.1920;          527   
     385;   353.0673;          470   
     386;   353.9426;          440   
     387;   354.8178;          381   
     388;   355.6931;          379   
     389;   356.5684;          404   
     390;   357.4437;          371   
     391;   358.3189;          309   
     392;   359.1942;          357   
     393;   360.0695;          309   
     394;   360.9448;          335   
     395;   361.8200;          316   
     396;   362.6953;          343   
     397;   363.5706;          343   
     398;   364.4459;          346   
     399;   365.3211;          296   
     400;   366.1964;          305   
     401;   367.0717;          343   
     402;   367.9470;          329   
     403;   368.8222;          329   
     404;   369.6975;          330   
     405;   370.5728;          359   
     406;   371.4481;          538   
     407;   372.3233;          904   
     408;   373.1986;          815   
     409;   374.0739;          409   
     410;   374.9492;          341   
     411;   375.8244;          339   
     412;   376.6997;          301   
     413;   377.5750;          311   
     414;   378.4503;          337   
     415;   379.3255;          321   
     416;   380.2008;          327   
     417;   381.0761;          305   
     418;   381.9514;          330   
     419;   382.8266;          309   
     420;   383.7019;          308   
     421;   384.5772;          314   
     422;   385.4525;          305   
     423;   386.3277;          295   
     424;   387.2030;          302   
     425;   388.0783;          312   
     426;   388.9536;          302   
     427;   389.8288;          287   
     428;   390.7041;          341   
     429;   391.5794;          317   
     430;   392.4547;          305   
     431;   393.3299;          302   
     432;   394.2052;          318   
     433;   395.0805;          282   
     434;   395.9558;          314   
     435;   396.8310;          301   
     436;   397.7063;          291   
     437;   398.5816;          285   
     438;   399.4569;          304   
     439;   400.3321;          296   
     440;   401.2074;          327   
     441;   402.0827;          256   
     442;   402.9580;          300   
     443;   403.8332;          279   
     444;   404.7085;          325   
     445;   405.5838;          314   
     446;   406.4591;          308   
     447;   407.3343;          274   
     448;   408.2096;          269   
     449;   409.0849;          300   
     450;   409.9602;          272   
     451;   410.8354;          276   
     452;   411.7107;          276   
     453;   412.5860;          303   
     454;   413.4613;          293   
     455;   414.3365;          378   
     456;   415.2118;          923   
     457;   416.0871;         1775   
     458;   416.9624;         1301   
     459;   417.8376;          513   
     460;   418.7129;          310   
     461;   419.5882;          312   
     462;   420.4635;          360   
     463;   421.3387;          379   
     464;   422.2140;          291   
     465;   423.0893;          274   
     466;   423.9646;          319   
     467;   424.8398;          275   
     468;   425.7151;          280   
     469;   426.5904;          286   
     470;   427.4657;          271   
     471;   428.3409;          294   
     472;   429.2162;          274   
     473;   430.0915;          267   
     474;   430.9668;          273   
     475;   431.8420;          258   
     476;   432.7173;          293   
     477;   433.5926;          271   
     478;   434.4679;          304   
     479;   435.3431;          283   
     480;   436.2184;          285   
     481;   437.0937;          286   
     482;   437.9690;          269   
     483;   438.8442;          270   
     484;   439.7195;          289   
     485;   440.5948;          293   
     486;   441.4701;          256   
     487;   442.3453;          278   
     488;   443.2206;          298   
     489;   444.0959;          263   
     490;   444.9712;          273   
     491;   445.8464;          288   
     492;   446.7217;          285   
     493;   447.5970;          473   
     494;   448.4723;         1346   
     495;   449.3475;         2211   
     496;   450.2228;         1358   
     497;   451.0981;          421   
     498;   451.9734;          305   
     499;   452.8486;          263   
     500;   453.7239;          285   
     501;   454.5992;          304   
     502;   455.4745;          255   
     503;   456.3497;          277   
     504;   457.2250;          287   
     505;   458.1003;          276   
     506;   458.9756;          277   
     507;   459.8508;          289   
     508;   460.7261;          265   
     509;   461.6014;          262   
     510;   462.4767;          265   
     511;   463.3519;          249   
     512;   464.2272;          251   
     513;   465.1025;          268   
     514;   465.9778;          276   
     515;   466.8530;          272   
     516;   467.7283;          263   
     517;   468.6036;          258   
     518;   469.4789;          242   
     519;   470.3541;          300   
     520;   471.2294;          310   
     521;   472.1047;          262   
     522;   472.9800;          247   
     523;   473.8552;          277   
     524;   474.7305;          298   
     525;   475.6058;          290   
     526;   476.4811;          251   
     527;   477.3563;          259   
     528;   478.2316;          262   
     529;   479.1069;          230   
     530;   479.9822;          271   
     531;   480.8574;          260   
     532;   481.7327;          229   
     533;   482.6080;          272   
     534;   483.4833;          295   
     535;   484.3585;          267   
     536;   485.2338;          284   
     537;   486.1091;          285   
     538;   486.9844;          250   
     539;   487.8596;          278   
     540;   488.7349;          308   
     541;   489.6102;          246   
     542;   490.4855;          250   
     543;   491.3607;          281   
     544;   492.2360;          279   
     545;   493.1113;          338   
     546;   493.9866;          468   
     547;   494.8618;          470   
     548;   495.7371;          284   
     549;   496.6124;          256   
     550;   497.4877;          256   
     551;   498.3629;          266   
     552;   499.2382;          266   
     553;   500.1135;          278   
     554;   500.9888;          251   
     555;   501.8640;          254   
     556;   502.7393;          275   
     557;   503.6146;          292   
     558;   504.4899;          251   
     559;   505.3651;          287   
     560;   506.2404;          257   
     561;   507.1157;          282   
     562;   507.9910;          259   
     563;   508.8662;          358   
     564;   509.7415;          342   
     565;   510.6168;          279   
     566;   511.4921;          271   
     567;   512.3673;          275   
     568;   513.2426;          271   
     569;   514.1179;          251   
     570;   514.9932;          287   
     571;   515.8684;          283   
     572;   516.7437;          339   
     573;   517.6190;          276   
     574;   518.4943;          279   
     575;   519.3695;          280   
     576;   520.2448;          269   
     577;   521.1201;          266   
     578;   521.9954;          228   
     579;   522.8706;          268   
     580;   523.7459;          259   
     581;   524.6212;          239   
     582;   525.4965;          267   
     583;   526.3717;          295   
     584;   527.2470;          277   
     585;   528.1223;          296   
     586;   528.9976;          262   
     587;   529.8728;          251   
     588;   530.7481;          255   
     589;   531.6234;          260   
     590;   532.4987;          277   
     591;   533.3739;          311   
     592;   534.2492;          289   
     593;   535.1245;          246   
     594;   535.9998;          220   
     595;   536.8750;          252   
     596;   537.7503;          248   
     597;   538.6256;          280   
     598;   539.5009;          263   
     599;   540.3761;          276   
     600;   541.2514;          308   
     601;   542.1267;          277   
     602;   543.0020;          275   
     603;   543.8772;          288   
     604;   544.7525;          249   
     605;   545.6278;          282   
     606;   546.5031;          264   
     607;   547.3783;          263   
     608;   548.2536;          254   
     609;   549.1289;          265   
     610;   550.0042;          294   
     611;   550.8794;          269   
     612;   551.7547;          266   
     613;   552.6300;          261   
     614;   553.5053;          264   
     615;   554.3805;          276   
     616;   555.2558;          255   
     617;   556.1311;          290   
     618;   557.0064;          258   
     619;   557.8816;          277   
     620;   558.7569;          269   
     621;   559.6322;          284   
     622;   560.5075;          264   
     623;   561.3827;          297   
     624;   562.2580;          296   
     625;   563.1333;          265   
     626;   564.0086;          290   
     627;   564.8838;          273   
     628;   565.7591;          294   
     629;   566.6344;          286   
     630;   567.5097;          283   
     631;   568.3849;          298   
     632;   569.2602;          412   
     633;   570.1355;          512   
     634;   571.0108;          449   
     635;   571.8860;          362   
     636;   572.7613;          361   
     637;   573.6366;          324   
     638;   574.5119;          286   
     639;   575.3871;          296   
     640;   576.2624;          279   
     641;   577.1377;          283   
     642;   578.0130;          289   
     643;   578.8882;          257   
     644;   579.7635;          301   
     645;   580.6388;          293   
     646;   581.5141;          270   
     647;   582.3893;          277   
     648;   583.2646;          262   
     649;   584.1399;          263   
     650;   585.0152;          268   
     651;   585.8904;          280   
     652;   586.7657;          256   
     653;   587.6410;          283   
     654;   588.5163;          270   
     655;   589.3915;          301   
     656;   590.2668;          304   
     657;   591.1421;          328   
     658;   592.0174;          455   
     659;   592.8926;          497   
     660;   593.7679;          349   
     661;   594.6432;          263   
     662;   595.5185;          236   
     663;   596.3937;          251   
     664;   597.2690;          243   
     665;   598.1443;          253   
     666;   599.0196;          244   
     667;   599.8948;          246   
     668;   600.7701;          287   
     669;   601.6454;          242   
     670;   602.5207;          234   
     671;   603.3959;          252   
     672;   604.2712;          242   
     673;   605.1465;          227   
     674;   606.0218;          255   
     675;   606.8970;          237   
     676;   607.7723;          231   
     677;   608.6476;          233   
     678;   609.5229;          273   
     679;   610.3981;          237   
     680;   611.2734;          256   
     681;   612.1487;          227   
     682;   613.0240;          227   
     683;   613.8992;          222   
     684;   614.7745;          245   
     685;   615.6498;          278   
     686;   616.5251;          251   
     687;   617.4003;          219   
     688;   618.2756;          252   
     689;   619.1509;          240   
     690;   620.0262;          244   
     691;   620.9014;          215   
     692;   621.7767;          213   
     693;   622.6520;          253   
     694;   623.5273;          234   
     695;   624.4025;          235   
     696;   625.2778;          226   
     697;   626.1531;          233   
     698;   627.0284;          237   
     699;   627.9036;          222   
     700;   628.7789;          216   
     701;   629.6542;          214   
     702;   630.5295;          246   
     703;   631.4047;          230   
     704;   632.2800;          210   
     705;   633.1553;          230   
     706;   634.0306;          240   
     707;   634.9058;          248   
     708;   635.7811;          207   
     709;   636.6564;          252   
     710;   637.5317;          224   
     711;   638.4069;          241   
     712;   639.2822;          211   
     713;   640.1575;          226   
     714;   641.0328;          248   
     715;   641.9080;          245   
     716;   642.7833;          234   
     717;   643.6586;          217   
     718;   644.5339;          218   
     719;   645.4091;          203   
     720;   646.2844;          237   
     721;   647.1597;          233   
     722;   648.0350;          211   
     723;   648.9102;          216   
     724;   649.7855;          252   
     725;   650.6608;          231   
     726;   651.5361;          229   
     727;   652.4113;          248   
     728;   653.2866;          216   
     729;   654.1619;          234   
     730;   655.0372;          213   
     731;   655.9124;          225   
     732;   656.7877;          249   
     733;   657.6630;          217   
     734;   658.5383;          242   
     735;   659.4135;          225   
     736;   660.2888;          245   
     737;   661.1641;          231   
     738;   662.0394;          240   
     739;   662.9146;          273   
     740;   663.7899;          277   
     741;   664.6652;          230   
     742;   665.5405;          239   
     743;   666.4157;          253   
     744;   667.2910;          248   
     745;   668.1663;          234   
     746;   669.0416;          267   
     747;   669.9168;          240   
     748;   670.7921;          217   
     749;   671.6674;          214   
     750;   672.5427;          220   
     751;   673.4179;          247   
     752;   674.2932;          227   
     753;   675.1685;          243   
     754;   676.0438;          206   
     755;   676.9190;          220   
     756;   677.7943;          254   
     757;   678.6696;          212   
     758;   679.5449;          220   
     759;   680.4201;          242   
     760;   681.2954;          292   
     761;   682.1707;          288   
     762;   683.0460;          217   
     763;   683.9212;          273   
     764;   684.7965;          351   
     765;   685.6718;          425   
     766;   686.5471;          346   
     767;   687.4223;          234   
     768;   688.2976;          240   
     769;   689.1729;          228   
     770;   690.0482;          216   
     771;   690.9234;          212   
     772;   691.7987;          205   
     773;   692.6740;          217   
     774;   693.5493;          218   
     775;   694.4245;          318   
     776;   695.2998;          530   
     777;   696.1751;          552   
     778;   697.0504;          325   
     779;   697.9256;          238   
     780;   698.8009;          231   
     781;   699.6762;          226   
     782;   700.5515;          225   
     783;   701.4267;          213   
     784;   702.3020;          225   
     785;   703.1773;          215   
     786;   704.0526;          189   
     787;   704.9278;          183   
     788;   705.8031;          243   
     789;   706.6784;          215   
     790;   707.5537;          223   
     791;   708.4289;          232   
     792;   709.3042;          222   
     793;   710.1795;          274   
     794;   711.0548;          214   
     795;   711.9300;          205   
     796;   712.8053;          212   
     797;   713.6806;          205   
     798;   714.5559;          237   
     799;   715.4311;          210   
     800;   716.3064;          218   
     801;   717.1817;          214   
     802;   718.0570;          250   
     803;   718.9322;          245   
     804;   719.8075;          262   
     805;   720.6828;          259   
     806;   721.5581;          224   
     807;   722.4333;          259   
     808;   723.3086;          236   
     809;   724.1839;          277   
     810;   725.0592;          262   
     811;   725.9344;          313   
     812;   726.8097;          329   
     813;   727.6850;          278   
     814;   728.5603;          252   
     815;   729.4355;          246   
     816;   730.3108;          257   
     817;   731.1861;          276   
     818;   732.0614;          235   
     819;   732.9366;          229   
     820;   733.8119;          240   
     821;   734.6872;          236   
     822;   735.5625;          230   
     823;   736.4377;          222   
     824;   737.3130;          219   
     825;   738.1883;          272   
     826;   739.0636;          256   
     827;   739.9388;          222   
     828;   740.8141;          234   
     829;   741.6894;          224   
     830;   742.5647;          216   
     831;   743.4399;          219   
     832;   744.3152;          251   
     833;   745.1905;          228   
     834;   746.0658;          223   
     835;   746.9410;          230   
     836;   747.8163;          231   
     837;   748.6916;          239   
     838;   749.5669;          235   
     839;   750.4421;          225   
     840;   751.3174;          233   
     841;   752.1927;          231   
     842;   753.0680;          251   
     843;   753.9432;          248   
     844;   754.8185;          240   
     845;   755.6938;          241   
     846;   756.5691;          250   
     847;   757.4443;          231   
     848;   758.3196;          193   
     849;   759.1949;          222   
     850;   760.0702;          222   
     851;   760.9454;          219   
     852;   761.8207;          235   
     853;   762.6960;          250   
     854;   763.5713;          233   
     855;   764.4465;          246   
     856;   765.3218;          236   
     857;   766.1971;          225   
     858;   767.0724;          229   
     859;   767.9476;          235   
     860;   768.8229;          211   
     861;   769.6982;          224   
     862;   770.5735;          240   
     863;   771.4487;          245   
     864;   772.3240;          300   
     865;   773.1993;          282   
     866;   774.0746;          214   
     867;   774.9498;          200   
     868;   775.8251;          255   
     869;   776.7004;          269   
     870;   777.5757;          231   
     871;   778.4509;          233   
     872;   779.3262;          241   
     873;   780.2015;          215   
     874;   781.0768;          200   
     875;   781.9520;          191   
     876;   782.8273;          230   
     877;   783.7026;          226   
     878;   784.5779;          553   
     879;   785.4531;         2138   
     880;   786.3284;         4619   
     881;   787.2037;         3806   
     882;   788.0790;         1257   
     883;   788.9542;          330   
     884;   789.8295;          266   
     885;   790.7048;          242   
     886;   791.5801;          220   
     887;   792.4553;          204   
     888;   793.3306;          219   
     889;   794.2059;          200   
     890;   795.0812;          200   
     891;   795.9564;          218   
     892;   796.8317;          229   
     893;   797.7070;          206   
     894;   798.5823;          215   
     895;   799.4575;          203   
     896;   800.3328;          194   
     897;   801.2081;          227   
     898;   802.0834;          191   
     899;   802.9586;          213   
     900;   803.8339;          185   
     901;   804.7092;          202   
     902;   805.5845;          196   
     903;   806.4597;          164   
     904;   807.3350;          198   
     905;   808.2103;          199   
     906;   809.0856;          176   
     907;   809.9608;          195   
     908;   810.8361;          202   
     909;   811.7114;          210   
     910;   812.5867;          188   
     911;   813.4619;          197   
     912;   814.3372;          200   
     913;   815.2125;          202   
     914;   816.0878;          198   
     915;   816.9631;          226   
     916;   817.8383;          258   
     917;   818.7136;          289   
     918;   819.5889;          241   
     919;   820.4642;          194   
     920;   821.3394;          186   
     921;   822.2147;          206   
     922;   823.0900;          215   
     923;   823.9653;          198   
     924;   824.8405;          185   
     925;   825.7158;          198   
     926;   826.5911;          199   
     927;   827.4664;          205   
     928;   828.3416;          180   
     929;   829.2169;          176   
     930;   830.0922;          183   
     931;   830.9675;          183   
     932;   831.8427;          217   
     933;   832.7180;          205   
     934;   833.5933;          191   
     935;   834.4686;          188   
     936;   835.3438;          208   
     937;   836.2191;          183   
     938;   837.0944;          191   
     939;   837.9697;          205   
     940;   838.8449;          190   
     941;   839.7202;          211   
     942;   840.5955;          175   
     943;   841.4708;          207   
     944;   842.3460;          193   
     945;   843.2213;          205   
     946;   844.0966;          186   
     947;   844.9719;          199   
     948;   845.8471;          209   
     949;   846.7224;          211   
     950;   847.5977;          206   
     951;   848.4730;          230   
     952;   849.3482;          248   
     953;   850.2235;          253   
     954;   851.0988;          213   
     955;   851.9741;          194   
     956;   852.8493;          193   
     957;   853.7246;          181   
     958;   854.5999;          200   
     959;   855.4752;          213   
     960;   856.3504;          220   
     961;   857.2257;          206   
     962;   858.1010;          181   
     963;   858.9763;          197   
     964;   859.8515;          187   
     965;   860.7268;          215   
     966;   861.6021;          197   
     967;   862.4774;          179   
     968;   863.3526;          184   
     969;   864.2279;          208   
     970;   865.1032;          212   
     971;   865.9785;          197   
     972;   866.8537;          204   
     973;   867.7290;          205   
     974;   868.6043;          204   
     975;   869.4796;          215   
     976;   870.3548;          208   
     977;   871.2301;          199   
     978;   872.1054;          201   
     979;   872.9807;          238   
     980;   873.8559;          372   
     981;   874.7312;         1049   
     982;   875.6065;         1532   
     983;   876.4818;         1016   
     984;   877.3570;          418   
     985;   878.2323;          250   
     986;   879.1076;          225   
     987;   879.9829;          211   
     988;   880.8581;          228   
     989;   881.7334;          232   
     990;   882.6087;          225   
     991;   883.4840;          194   
     992;   884.3592;          200   
     993;   885.2345;          197   
     994;   886.1098;          191   
     995;   886.9851;          210   
     996;   887.8603;          197   
     997;   888.7356;          185   
     998;   889.6109;          230   
     999;   890.4862;          201   
    1000;   891.3614;          223   
    1001;   892.2367;          188   
    1002;   893.1120;          186   
    1003;   893.9873;          180   
    1004;   894.8625;          183   
    1005;   895.7378;          174   
    1006;   896.6131;          211   
    1007;   897.4884;          204   
    1008;   898.3636;          178   
    1009;   899.2389;          182   
    1010;   900.1142;          184   
    1011;   900.9895;          193   
    1012;   901.8647;          184   
    1013;   902.7400;          187   
    1014;   903.6153;          183   
    1015;   904.4906;          196   
    1016;   905.3658;          188   
    1017;   906.2411;          202   
    1018;   907.1164;          185   
    1019;   907.9917;          183   
    1020;   908.8669;          177   
    1021;   909.7422;          219   
    1022;   910.6175;          177   
    1023;   911.4928;          167   
    1024;   912.3680;          157   
    1025;   913.2433;          162   
    1026;   914.1186;          160   
    1027;   914.9939;          156   
    1028;   915.8691;          137   
    1029;   916.7444;          154   
    1030;   917.6197;          143   
    1031;   918.4950;          153   
    1032;   919.3702;          183   
    1033;   920.2455;          161   
    1034;   921.1208;          148   
    1035;   921.9961;          167   
    1036;   922.8713;          149   
    1037;   923.7466;          145   
    1038;   924.6219;          153   
    1039;   925.4972;          128   
    1040;   926.3724;          164   
    1041;   927.2477;          216   
    1042;   928.1230;          272   
    1043;   928.9983;          212   
    1044;   929.8735;          148   
    1045;   930.7488;          144   
    1046;   931.6241;          137   
    1047;   932.4994;          149   
    1048;   933.3746;          168   
    1049;   934.2499;          190   
    1050;   935.1252;          220   
    1051;   936.0005;          174   
    1052;   936.8757;          133   
    1053;   937.7510;          145   
    1054;   938.6263;          160   
    1055;   939.5016;          159   
    1056;   940.3768;          142   
    1057;   941.2521;          130   
    1058;   942.1274;          125   
    1059;   943.0027;          139   
    1060;   943.8779;          138   
    1061;   944.7532;          136   
    1062;   945.6285;          118   
    1063;   946.5038;          118   
    1064;   947.3790;          134   
    1065;   948.2543;          129   
    1066;   949.1296;          123   
    1067;   950.0049;          146   
    1068;   950.8801;          140   
    1069;   951.7554;          128   
    1070;   952.6307;          123   
    1071;   953.5060;          108   
    1072;   954.3812;          115   
    1073;   955.2565;          141   
    1074;   956.1318;          124   
    1075;   957.0071;          150   
    1076;   957.8823;          124   
    1077;   958.7576;          118   
    1078;   959.6329;          110   
    1079;   960.5082;          124   
    1080;   961.3834;          115   
    1081;   962.2587;          117   
    1082;   963.1340;          124   
    1083;   964.0093;          112   
    1084;   964.8845;          139   
    1085;   965.7598;          132   
    1086;   966.6351;          145   
    1087;   967.5104;          134   
    1088;   968.3856;          124   
    1089;   969.2609;          131   
    1090;   970.1362;          196   
    1091;   971.0115;          721   
    1092;   971.8867;         2313   
    1093;   972.7620;         4093   
    1094;   973.6373;         3095   
    1095;   974.5126;          944   
    1096;   975.3878;          289   
    1097;   976.2631;          175   
    1098;   977.1384;          176   
    1099;   978.0137;          150   
    1100;   978.8889;          139   
    1101;   979.7642;          126   
    1102;   980.6395;           97   
    1103;   981.5148;          109   
    1104;   982.3900;          120   
    1105;   983.2653;          119   
    1106;   984.1406;          107   
    1107;   985.0159;          102   
    1108;   985.8911;          120   
    1109;   986.7664;          142   
    1110;   987.6417;          101   
    1111;   988.5170;          106   
    1112;   989.3922;           96   
    1113;   990.2675;          108   
    1114;   991.1428;          103   
    1115;   992.0181;          104   
    1116;   992.8933;          120   
    1117;   993.7686;          100   
    1118;   994.6439;          121   
    1119;   995.5192;          122   
    1120;   996.3944;          106   
    1121;   997.2697;          122   
    1122;   998.1450;          142   
    1123;   999.0203;          102   
    1124;   999.8955;          102   
    1125;  1000.7708;           97   
    1126;  1001.6461;           85   
    1127;  1002.5214;          109   
    1128;  1003.3966;          101   
    1129;  1004.2719;          123   
    1130;  1005.1472;          105   
    1131;  1006.0225;          115   
    1132;  1006.8977;           85   
    1133;  1007.7730;          106   
    1134;  1008.6483;          100   
    1135;  1009.5236;          113   
    1136;  1010.3988;          110   
    1137;  1011.2741;           88   
    1138;  1012.1494;          128   
    1139;  1013.0247;          207   
    1140;  1013.8999;          314   
    1141;  1014.7752;          254   
    1142;  1015.6505;          157   
    1143;  1016.5258;          103   
    1144;  1017.4010;          102   
    1145;  1018.2763;          104   
    1146;  1019.1516;           92   
    1147;  1020.0269;           97   
    1148;  1020.9021;           99   
    1149;  1021.7774;           79   
    1150;  1022.6527;          112   
    1151;  1023.5280;           95   
    1152;  1024.4032;           68   
    1153;  1025.2785;           93   
    1154;  1026.1538;           96   
    1155;  1027.0291;          100   
    1156;  1027.9043;           98   
    1157;  1028.7796;           78   
    1158;  1029.6549;          109   
    1159;  1030.5302;           93   
    1160;  1031.4054;          102   
    1161;  1032.2807;          103   
    1162;  1033.1560;           87   
    1163;  1034.0313;          103   
    1164;  1034.9065;           86   
    1165;  1035.7818;           94   
    1166;  1036.6571;           82   
    1167;  1037.5324;           74   
    1168;  1038.4076;           93   
    1169;  1039.2829;           87   
    1170;  1040.1582;          101   
    1171;  1041.0335;          100   
    1172;  1041.9087;           88   
    1173;  1042.7840;           95   
    1174;  1043.6593;          105   
    1175;  1044.5346;          104   
    1176;  1045.4098;           93   
    1177;  1046.2851;           74   
    1178;  1047.1604;           94   
    1179;  1048.0357;           90   
    1180;  1048.9109;          105   
    1181;  1049.7862;           96   
    1182;  1050.6615;          102   
    1183;  1051.5368;           83   
    1184;  1052.4120;           88   
    1185;  1053.2873;           82   
    1186;  1054.1626;           93   
    1187;  1055.0379;           80   
    1188;  1055.9131;           96   
    1189;  1056.7884;           97   
    1190;  1057.6637;          115   
    1191;  1058.5390;           83   
    1192;  1059.4142;           97   
    1193;  1060.2895;          105   
    1194;  1061.1648;           87   
    1195;  1062.0401;           90   
    1196;  1062.9153;           69   
    1197;  1063.7906;           97   
    1198;  1064.6659;           84   
    1199;  1065.5412;           92   
    1200;  1066.4164;          101   
    1201;  1067.2917;           83   
    1202;  1068.1670;           79   
    1203;  1069.0423;          114   
    1204;  1069.9175;           93   
    1205;  1070.7928;           87   
    1206;  1071.6681;          103   
    1207;  1072.5434;           91   
    1208;  1073.4186;           87   
    1209;  1074.2939;           90   
    1210;  1075.1692;           94   
    1211;  1076.0445;          104   
    1212;  1076.9197;           83   
    1213;  1077.7950;           88   
    1214;  1078.6703;          112   
    1215;  1079.5456;           89   
    1216;  1080.4208;           87   
    1217;  1081.2961;           75   
    1218;  1082.1714;           96   
    1219;  1083.0467;          108   
    1220;  1083.9219;           88   
    1221;  1084.7972;           96   
    1222;  1085.6725;           97   
    1223;  1086.5478;           94   
    1224;  1087.4230;           91   
    1225;  1088.2983;          118   
    1226;  1089.1736;           94   
    1227;  1090.0489;          112   
    1228;  1090.9241;          102   
    1229;  1091.7994;          115   
    1230;  1092.6747;          166   
    1231;  1093.5500;          465   
    1232;  1094.4252;         1699   
    1233;  1095.3005;         2513   
    1234;  1096.1758;         1889   
    1235;  1097.0511;          717   
    1236;  1097.9263;          343   
    1237;  1098.8016;          500   
    1238;  1099.6769;          466   
    1239;  1100.5522;          283   
    1240;  1101.4274;          144   
    1241;  1102.3027;          112   
    1242;  1103.1780;           88   
    1243;  1104.0533;          116   
    1244;  1104.9285;           84   
    1245;  1105.8038;          104   
    1246;  1106.6791;          103   
    1247;  1107.5544;           96   
    1248;  1108.4296;           95   
    1249;  1109.3049;          112   
    1250;  1110.1802;          101   
    1251;  1111.0555;          104   
    1252;  1111.9307;          104   
    1253;  1112.8060;          111   
    1254;  1113.6813;           77   
    1255;  1114.5566;           99   
    1256;  1115.4318;          125   
    1257;  1116.3071;           96   
    1258;  1117.1824;          110   
    1259;  1118.0577;          134   
    1260;  1118.9329;          229   
    1261;  1119.8082;          586   
    1262;  1120.6835;         1770   
    1263;  1121.5588;         3310   
    1264;  1122.4340;         2717   
    1265;  1123.3093;         1029   
    1266;  1124.1846;          281   
    1267;  1125.0599;          143   
    1268;  1125.9351;          100   
    1269;  1126.8104;          104   
    1270;  1127.6857;          125   
    1271;  1128.5610;          143   
    1272;  1129.4362;          109   
    1273;  1130.3115;           99   
    1274;  1131.1868;          110   
    1275;  1132.0621;          123   
    1276;  1132.9373;          119   
    1277;  1133.8126;          114   
    1278;  1134.6879;           93   
    1279;  1135.5632;           98   
    1280;  1136.4384;          101   
    1281;  1137.3137;           99   
    1282;  1138.1890;          110   
    1283;  1139.0643;           75   
    1284;  1139.9395;           97   
    1285;  1140.8148;           91   
    1286;  1141.6901;          110   
    1287;  1142.5654;          106   
    1288;  1143.4406;          106   
    1289;  1144.3159;          102   
    1290;  1145.1912;          112   
    1291;  1146.0665;          118   
    1292;  1146.9417;           95   
    1293;  1147.8170;           94   
    1294;  1148.6923;           89   
    1295;  1149.5676;           98   
    1296;  1150.4428;          100   
    1297;  1151.3181;           82   
    1298;  1152.1934;          103   
    1299;  1153.0687;          114   
    1300;  1153.9439;          101   
    1301;  1154.8192;           97   
    1302;  1155.6945;           91   
    1303;  1156.5698;          108   
    1304;  1157.4450;           94   
    1305;  1158.3203;          100   
    1306;  1159.1956;          108   
    1307;  1160.0709;          102   
    1308;  1160.9461;           97   
    1309;  1161.8214;           77   
    1310;  1162.6967;          117   
    1311;  1163.5720;          112   
    1312;  1164.4472;           93   
    1313;  1165.3225;          115   
    1314;  1166.1978;          118   
    1315;  1167.0731;          116   
    1316;  1167.9483;          104   
    1317;  1168.8236;          118   
    1318;  1169.6989;           77   
    1319;  1170.5742;          114   
    1320;  1171.4494;          101   
    1321;  1172.3247;          117   
    1322;  1173.2000;           96   
    1323;  1174.0753;           91   
    1324;  1174.9505;          111   
    1325;  1175.8258;          100   
    1326;  1176.7011;          103   
    1327;  1177.5764;          119   
    1328;  1178.4516;          113   
    1329;  1179.3269;          115   
    1330;  1180.2022;          114   
    1331;  1181.0775;          115   
    1332;  1181.9527;          111   
    1333;  1182.8280;          119   
    1334;  1183.7033;          104   
    1335;  1184.5786;          128   
    1336;  1185.4538;          110   
    1337;  1186.3291;          118   
    1338;  1187.2044;          110   
    1339;  1188.0797;          124   
    1340;  1188.9549;          117   
    1341;  1189.8302;           99   
    1342;  1190.7055;          103   
    1343;  1191.5808;          100   
    1344;  1192.4560;          102   
    1345;  1193.3313;          114   
    1346;  1194.2066;           97   
    1347;  1195.0819;          111   
    1348;  1195.9571;          113   
    1349;  1196.8324;          123   
    1350;  1197.7077;           94   
    1351;  1198.5830;          105   
    1352;  1199.4582;          105   
    1353;  1200.3335;           89   
    1354;  1201.2088;          106   
    1355;  1202.0841;          105   
    1356;  1202.9593;          103   
    1357;  1203.8346;           78   
    1358;  1204.7099;           80   
    1359;  1205.5852;           73   
    1360;  1206.4604;           85   
    1361;  1207.3357;           91   
    1362;  1208.2110;           67   
    1363;  1209.0863;           75   
    1364;  1209.9615;           70   
    1365;  1210.8368;           74   
    1366;  1211.7121;           73   
    1367;  1212.5874;           67   
    1368;  1213.4626;           90   
    1369;  1214.3379;           68   
    1370;  1215.2132;           85   
    1371;  1216.0885;           85   
    1372;  1216.9637;           68   
    1373;  1217.8390;           67   
    1374;  1218.7143;           77   
    1375;  1219.5896;           65   
    1376;  1220.4648;           77   
    1377;  1221.3401;          126   
    1378;  1222.2154;          244   
    1379;  1223.0907;          360   
    1380;  1223.9659;          297   
    1381;  1224.8412;          154   
    1382;  1225.7165;           93   
    1383;  1226.5918;           73   
    1384;  1227.4670;           69   
    1385;  1228.3423;           72   
    1386;  1229.2176;           68   
    1387;  1230.0929;           66   
    1388;  1230.9681;           68   
    1389;  1231.8434;           64   
    1390;  1232.7187;           80   
    1391;  1233.5940;           59   
    1392;  1234.4692;           70   
    1393;  1235.3445;           60   
    1394;  1236.2198;           78   
    1395;  1237.0951;           56   
    1396;  1237.9703;           55   
    1397;  1238.8456;           62   
    1398;  1239.7209;           63   
    1399;  1240.5962;           63   
    1400;  1241.4714;           64   
    1401;  1242.3467;           61   
    1402;  1243.2220;           63   
    1403;  1244.0973;           81   
    1404;  1244.9725;           61   
    1405;  1245.8478;           54   
    1406;  1246.7231;           64   
    1407;  1247.5984;           48   
    1408;  1248.4736;           61   
    1409;  1249.3489;           45   
    1410;  1250.2242;           53   
    1411;  1251.0995;           67   
    1412;  1251.9747;           62   
    1413;  1252.8500;           57   
    1414;  1253.7253;           38   
    1415;  1254.6006;           60   
    1416;  1255.4758;           58   
    1417;  1256.3511;           68   
    1418;  1257.2264;           51   
    1419;  1258.1017;           70   
    1420;  1258.9769;           64   
    1421;  1259.8522;           81   
    1422;  1260.7275;           94   
    1423;  1261.6028;           67   
    1424;  1262.4780;           54   
    1425;  1263.3533;           49   
    1426;  1264.2286;           48   
    1427;  1265.1039;           42   
    1428;  1265.9791;           50   
    1429;  1266.8544;           51   
    1430;  1267.7297;           45   
    1431;  1268.6050;           53   
    1432;  1269.4802;           53   
    1433;  1270.3555;           40   
    1434;  1271.2308;           57   
    1435;  1272.1061;           57   
    1436;  1272.9813;           42   
    1437;  1273.8566;           45   
    1438;  1274.7319;           42   
    1439;  1275.6072;           46   
    1440;  1276.4824;           40   
    1441;  1277.3577;           48   
    1442;  1278.2330;           46   
    1443;  1279.1083;           31   
    1444;  1279.9835;           46   
    1445;  1280.8588;           36   
    1446;  1281.7341;           51   
    1447;  1282.6094;           44   
    1448;  1283.4846;           49   
    1449;  1284.3599;           65   
    1450;  1285.2352;          101   
    1451;  1286.1105;           70   
    1452;  1286.9857;           35   
    1453;  1287.8610;           37   
    1454;  1288.7363;           39   
    1455;  1289.6116;           45   
    1456;  1290.4868;           33   
    1457;  1291.3621;           26   
    1458;  1292.2374;           47   
    1459;  1293.1127;           38   
    1460;  1293.9879;           46   
    1461;  1294.8632;           29   
    1462;  1295.7385;           40   
    1463;  1296.6138;           37   
    1464;  1297.4890;           29   
    1465;  1298.3643;           34   
    1466;  1299.2396;           38   
    1467;  1300.1149;           45   
    1468;  1300.9901;           32   
    1469;  1301.8654;           48   
    1470;  1302.7407;           57   
    1471;  1303.6160;           49   
    1472;  1304.4912;           32   
    1473;  1305.3665;           38   
    1474;  1306.2418;           40   
    1475;  1307.1171;           51   
    1476;  1307.9923;           90   
    1477;  1308.8676;          254   
    1478;  1309.7429;          353   
    1479;  1310.6182;          274   
    1480;  1311.4934;          112   
    1481;  1312.3687;           42   
    1482;  1313.2440;           37   
    1483;  1314.1193;           32   
    1484;  1314.9945;           25   
    1485;  1315.8698;           38   
    1486;  1316.7451;           40   
    1487;  1317.6204;           24   
    1488;  1318.4956;           27   
    1489;  1319.3709;           24   
    1490;  1320.2462;           26   
    1491;  1321.1215;           30   
    1492;  1321.9967;           28   
    1493;  1322.8720;           29   
    1494;  1323.7473;           31   
    1495;  1324.6226;           29   
    1496;  1325.4978;           30   
    1497;  1326.3731;           30   
    1498;  1327.2484;           29   
    1499;  1328.1237;           33   
    1500;  1328.9989;           26   
    1501;  1329.8742;           22   
    1502;  1330.7495;           27   
    1503;  1331.6248;           27   
    1504;  1332.5000;           34   
    1505;  1333.3753;           17   
    1506;  1334.2506;           25   
    1507;  1335.1259;           18   
    1508;  1336.0011;           23   
    1509;  1336.8764;           19   
    1510;  1337.7517;           31   
    1511;  1338.6270;           29   
    1512;  1339.5022;           20   
    1513;  1340.3775;           23   
    1514;  1341.2528;           21   
    1515;  1342.1281;           13   
    1516;  1343.0033;           16   
    1517;  1343.8786;           18   
    1518;  1344.7539;           20   
    1519;  1345.6292;           15   
    1520;  1346.5044;           27   
    1521;  1347.3797;           21   
    1522;  1348.2550;           16   
    1523;  1349.1303;           18   
    1524;  1350.0055;           25   
    1525;  1350.8808;           17   
    1526;  1351.7561;           19   
    1527;  1352.6314;           15   
    1528;  1353.5066;           23   
    1529;  1354.3819;           23   
    1530;  1355.2572;           21   
    1531;  1356.1325;           28   
    1532;  1357.0077;           22   
    1533;  1357.8830;           16   
    1534;  1358.7583;           20   
    1535;  1359.6336;           25   
    1536;  1360.5088;           21   
    1537;  1361.3841;           21   
    1538;  1362.2594;           13   
    1539;  1363.1347;           13   
    1540;  1364.0099;           19   
    1541;  1364.8852;           18   
    1542;  1365.7605;           20   
    1543;  1366.6358;           19   
    1544;  1367.5110;           26   
    1545;  1368.3863;           15   
    1546;  1369.2616;           21   
    1547;  1370.1369;           16   
    1548;  1371.0121;           19   
    1549;  1371.8874;           23   
    1550;  1372.7627;           20   
    1551;  1373.6380;           25   
    1552;  1374.5132;           14   
    1553;  1375.3885;           16   
    1554;  1376.2638;           13   
    1555;  1377.1391;           19   
    1556;  1378.0143;           11   
    1557;  1378.8896;           13   
    1558;  1379.7649;           19   
    1559;  1380.6402;           14   
    1560;  1381.5154;           16   
    1561;  1382.3907;           22   
    1562;  1383.2660;           13   
    1563;  1384.1413;           17   
    1564;  1385.0165;            9   
    1565;  1385.8918;           15   
    1566;  1386.7671;           16   
    1567;  1387.6424;           15   
    1568;  1388.5176;           15   
    1569;  1389.3929;           10   
    1570;  1390.2682;           11   
    1571;  1391.1435;           15   
    1572;  1392.0187;           13   
    1573;  1392.8940;           11   
    1574;  1393.7693;           19   
    1575;  1394.6446;           14   
    1576;  1395.5198;           14   
    1577;  1396.3951;           22   
    1578;  1397.2704;           11   
    1579;  1398.1457;           14   
    1580;  1399.0209;           14   
    1581;  1399.8962;           12   
    1582;  1400.7715;           19   
    1583;  1401.6468;           16   
    1584;  1402.5220;           10   
    1585;  1403.3973;           13   
    1586;  1404.2726;           18   
    1587;  1405.1479;           17   
    1588;  1406.0231;           15   
    1589;  1406.8984;           10   
    1590;  1407.7737;           14   
    1591;  1408.6490;           19   
    1592;  1409.5242;           13   
    1593;  1410.3995;           14   
    1594;  1411.2748;           13   
    1595;  1412.1501;           14   
    1596;  1413.0253;           18   
    1597;  1413.9006;           19   
    1598;  1414.7759;           30   
    1599;  1415.6512;           56   
    1600;  1416.5264;          177   
    1601;  1417.4017;          816   
    1602;  1418.2770;         2247   
    1603;  1419.1523;         3809   
    1604;  1420.0275;         3031   
    1605;  1420.9028;         1306   
    1606;  1421.7781;          287   
    1607;  1422.6534;           90   
    1608;  1423.5286;           54   
    1609;  1424.4039;           36   
    1610;  1425.2792;           28   
    1611;  1426.1545;           22   
    1612;  1427.0297;           16   
    1613;  1427.9050;           20   
    1614;  1428.7803;           12   
    1615;  1429.6556;           23   
    1616;  1430.5308;           15   
    1617;  1431.4061;           16   
    1618;  1432.2814;           14   
    1619;  1433.1567;           23   
    1620;  1434.0319;           16   
    1621;  1434.9072;           22   
    1622;  1435.7825;           17   
    1623;  1436.6578;           23   
    1624;  1437.5330;           15   
    1625;  1438.4083;           12   
    1626;  1439.2836;           19   
    1627;  1440.1589;           17   
    1628;  1441.0341;           18   
    1629;  1441.9094;           18   
    1630;  1442.7847;           15   
    1631;  1443.6600;           12   
    1632;  1444.5352;           24   
    1633;  1445.4105;           17   
    1634;  1446.2858;           21   
    1635;  1447.1611;           11   
    1636;  1448.0363;           19   
    1637;  1448.9116;           17   
    1638;  1449.7869;           19   
    1639;  1450.6622;            9   
    1640;  1451.5374;            8   
    1641;  1452.4127;           19   
    1642;  1453.2880;           12   
    1643;  1454.1633;           14   
    1644;  1455.0385;           17   
    1645;  1455.9138;            7   
    1646;  1456.7891;           14   
    1647;  1457.6644;           10   
    1648;  1458.5396;           25   
    1649;  1459.4149;           11   
    1650;  1460.2902;            3   
    1651;  1461.1655;           10   
    1652;  1462.0407;           13   
    1653;  1462.9160;           13   
    1654;  1463.7913;           21   
    1655;  1464.6666;           11   
    1656;  1465.5418;           17   
    1657;  1466.4171;            9   
    1658;  1467.2924;           44   
    1659;  1468.1677;           87   
    1660;  1469.0429;           86   
    1661;  1469.9182;           95   
    1662;  1470.7935;           83   
    1663;  1471.6688;          145   
    1664;  1472.5440;          182   
    1665;  1473.4193;          126   
    1666;  1474.2946;           47   
    1667;  1475.1699;           18   
    1668;  1476.0451;           20   
    1669;  1476.9204;           13   
    1670;  1477.7957;            9   
    1671;  1478.6710;           12   
    1672;  1479.5462;            9   
    1673;  1480.4215;           14   
    1674;  1481.2968;           14   
    1675;  1482.1721;           14   
    1676;  1483.0473;           18   
    1677;  1483.9226;           14   
    1678;  1484.7979;           11   
    1679;  1485.6732;           13   
    1680;  1486.5484;           10   
    1681;  1487.4237;           11   
    1682;  1488.2990;            8   
    1683;  1489.1743;           12   
    1684;  1490.0495;           10   
    1685;  1490.9248;            4   
    1686;  1491.8001;           12   
    1687;  1492.6754;           15   
    1688;  1493.5506;           14   
    1689;  1494.4259;           12   
    1690;  1495.3012;            7   
    1691;  1496.1765;           11   
    1692;  1497.0517;           10   
    1693;  1497.9270;           17   
    1694;  1498.8023;           18   
    1695;  1499.6776;           10   
    1696;  1500.5528;           12   
    1697;  1501.4281;           15   
    1698;  1502.3034;            8   
    1699;  1503.1787;           11   
    1700;  1504.0539;           13   
    1701;  1504.9292;           12   
    1702;  1505.8045;           10   
    1703;  1506.6798;           10   
    1704;  1507.5550;           11   
    1705;  1508.4303;            9   
    1706;  1509.3056;           11   
    1707;  1510.1809;           10   
    1708;  1511.0561;           11   
    1709;  1511.9314;           11   
    1710;  1512.8067;            7   
    1711;  1513.6820;           11   
    1712;  1514.5572;           11   
    1713;  1515.4325;            4   
    1714;  1516.3078;            8   
    1715;  1517.1831;            8   
    1716;  1518.0583;            7   
    1717;  1518.9336;           15   
    1718;  1519.8089;            9   
    1719;  1520.6842;            8   
    1720;  1521.5594;           14   
    1721;  1522.4347;           13   
    1722;  1523.3100;           10   
    1723;  1524.1853;            7   
    1724;  1525.0605;           10   
    1725;  1525.9358;           11   
    1726;  1526.8111;           14   
    1727;  1527.6864;           12   
    1728;  1528.5616;            9   
    1729;  1529.4369;            8   
    1730;  1530.3122;            7   
    1731;  1531.1875;           13   
    1732;  1532.0627;            7   
    1733;  1532.9380;           10   
    1734;  1533.8133;            9   
    1735;  1534.6886;            7   
    1736;  1535.5638;           15   
    1737;  1536.4391;           15   
    1738;  1537.3144;           16   
    1739;  1538.1897;           20   
    1740;  1539.0649;           42   
    1741;  1539.9402;           50   
    1742;  1540.8155;           68   
    1743;  1541.6908;           58   
    1744;  1542.5660;           29   
    1745;  1543.4413;           19   
    1746;  1544.3166;           11   
    1747;  1545.1919;            6   
    1748;  1546.0671;            7   
    1749;  1546.9424;            4   
    1750;  1547.8177;           12   
    1751;  1548.6930;            5   
    1752;  1549.5682;            7   
    1753;  1550.4435;           11   
    1754;  1551.3188;            5   
    1755;  1552.1941;            7   
    1756;  1553.0693;            5   
    1757;  1553.9446;           11   
    1758;  1554.8199;            6   
    1759;  1555.6952;            9   
    1760;  1556.5704;            6   
    1761;  1557.4457;            2   
    1762;  1558.3210;            4   
    1763;  1559.1963;           11   
    1764;  1560.0715;            3   
    1765;  1560.9468;            5   
    1766;  1561.8221;            3   
    1767;  1562.6974;            5   
    1768;  1563.5726;            6   
    1769;  1564.4479;            7   
    1770;  1565.3232;           10   
    1771;  1566.1985;            8   
    1772;  1567.0737;            9   
    1773;  1567.9490;            4   
    1774;  1568.8243;            6   
    1775;  1569.6996;            7   
    1776;  1570.5748;            7   
    1777;  1571.4501;            6   
    1778;  1572.3254;            8   
    1779;  1573.2007;            3   
    1780;  1574.0759;           12   
    1781;  1574.9512;            6   
    1782;  1575.8265;           13   
    1783;  1576.7018;            7   
    1784;  1577.5770;            8   
    1785;  1578.4523;            5   
    1786;  1579.3276;            2   
    1787;  1580.2029;            4   
    1788;  1581.0781;            7   
    1789;  1581.9534;           11   
    1790;  1582.8287;            7   
    1791;  1583.7040;            9   
    1792;  1584.5792;            7   
    1793;  1585.4545;            9   
    1794;  1586.3298;            6   
    1795;  1587.2051;            5   
    1796;  1588.0803;            5   
    1797;  1588.9556;           11   
    1798;  1589.8309;            6   
    1799;  1590.7062;            5   
    1800;  1591.5814;            4   
    1801;  1592.4567;            3   
    1802;  1593.3320;           11   
    1803;  1594.2073;            7   
    1804;  1595.0825;            3   
    1805;  1595.9578;            8   
    1806;  1596.8331;            2   
    1807;  1597.7084;            8   
    1808;  1598.5836;            4   
    1809;  1599.4589;            6   
    1810;  1600.3342;            8   
    1811;  1601.2095;            2   
    1812;  1602.0847;            3   
    1813;  1602.9600;            3   
    1814;  1603.8353;           16   
    1815;  1604.7106;           12   
    1816;  1605.5858;            8   
    1817;  1606.4611;            3   
    1818;  1607.3364;           10   
    1819;  1608.2117;            4   
    1820;  1609.0869;            5   
    1821;  1609.9622;            8   
    1822;  1610.8375;            7   
    1823;  1611.7128;            6   
    1824;  1612.5880;            2   
    1825;  1613.4633;            4   
    1826;  1614.3386;            5   
    1827;  1615.2139;            2   
    1828;  1616.0891;            2   
    1829;  1616.9644;            6   
    1830;  1617.8397;            7   
    1831;  1618.7150;            8   
    1832;  1619.5902;            7   
    1833;  1620.4655;           11   
    1834;  1621.3408;            7   
    1835;  1622.2161;            7   
    1836;  1623.0913;            7   
    1837;  1623.9666;            6   
    1838;  1624.8419;            6   
    1839;  1625.7172;            4   
    1840;  1626.5924;            4   
    1841;  1627.4677;            2   
    1842;  1628.3430;            5   
    1843;  1629.2183;            8   
    1844;  1630.0935;            2   
    1845;  1630.9688;            6   
    1846;  1631.8441;            3   
    1847;  1632.7194;            3   
    1848;  1633.5946;            2   
    1849;  1634.4699;            7   
    1850;  1635.3452;            3   
    1851;  1636.2205;            6   
    1852;  1637.0957;            5   
    1853;  1637.9710;            6   
    1854;  1638.8463;            8   
    1855;  1639.7216;            8   
    1856;  1640.5968;            3   
    1857;  1641.4721;            7   
    1858;  1642.3474;            8   
    1859;  1643.2227;            3   
    1860;  1644.0979;            6   
    1861;  1644.9732;            5   
    1862;  1645.8485;            7   
    1863;  1646.7238;            4   
    1864;  1647.5990;            8   
    1865;  1648.4743;            3   
    1866;  1649.3496;            4   
    1867;  1650.2249;            2   
    1868;  1651.1001;            5   
    1869;  1651.9754;            4   
    1870;  1652.8507;            6   
    1871;  1653.7260;            8   
    1872;  1654.6012;            4   
    1873;  1655.4765;           10   
    1874;  1656.3518;           10   
    1875;  1657.2271;            3   
    1876;  1658.1023;            2   
    1877;  1658.9776;            4   
    1878;  1659.8529;            7   
    1879;  1660.7282;            3   
    1880;  1661.6034;            5   
    1881;  1662.4787;            4   
    1882;  1663.3540;            8   
    1883;  1664.2293;            6   
    1884;  1665.1045;            8   
    1885;  1665.9798;            8   
    1886;  1666.8551;            2   
    1887;  1667.7304;            1   
    1888;  1668.6056;            4   
    1889;  1669.4809;            2   
    1890;  1670.3562;            7   
    1891;  1671.2315;            0   
    1892;  1672.1067;            7   
    1893;  1672.9820;            8   
    1894;  1673.8573;            4   
    1895;  1674.7326;            1   
    1896;  1675.6078;            5   
    1897;  1676.4831;            6   
    1898;  1677.3584;            5   
    1899;  1678.2337;            4   
    1900;  1679.1089;            1   
    1901;  1679.9842;            3   
    1902;  1680.8595;            3   
    1903;  1681.7348;            4   
    1904;  1682.6100;            3   
    1905;  1683.4853;            3   
    1906;  1684.3606;            6   
    1907;  1685.2359;            6   
    1908;  1686.1111;            6   
    1909;  1686.9864;            5   
    1910;  1687.8617;            5   
    1911;  1688.7370;            2   
    1912;  1689.6122;            4   
    1913;  1690.4875;            3   
    1914;  1691.3628;            4   
    1915;  1692.2381;            2   
    1916;  1693.1133;            3   
    1917;  1693.9886;            3   
    1918;  1694.8639;            7   
    1919;  1695.7392;            6   
    1920;  1696.6144;            2   
    1921;  1697.4897;            3   
    1922;  1698.3650;            3   
    1923;  1699.2403;            2   
    1924;  1700.1155;            2   
    1925;  1700.9908;            4   
    1926;  1701.8661;            4   
    1927;  1702.7414;            1   
    1928;  1703.6166;            2   
    1929;  1704.4919;            2   
    1930;  1705.3672;            3   
    1931;  1706.2425;            7   
    1932;  1707.1177;            2   
    1933;  1707.9930;            2   
    1934;  1708.8683;            2   
    1935;  1709.7436;            3   
    1936;  1710.6188;            4   
    1937;  1711.4941;            2   
    1938;  1712.3694;            7   
    1939;  1713.2447;            5   
    1940;  1714.1199;            1   
    1941;  1714.9952;            3   
    1942;  1715.8705;            0   
    1943;  1716.7458;            3   
    1944;  1717.6210;            8   
    1945;  1718.4963;            3   
    1946;  1719.3716;            4   
    1947;  1720.2469;            1   
    1948;  1721.1221;            5   
    1949;  1721.9974;            3   
    1950;  1722.8727;            2   
    1951;  1723.7480;            2   
    1952;  1724.6232;            7   
    1953;  1725.4985;            4   
    1954;  1726.3738;            6   
    1955;  1727.2491;            2   
    1956;  1728.1243;            2   
    1957;  1728.9996;            2   
    1958;  1729.8749;            2   
    1959;  1730.7502;            7   
    1960;  1731.6254;            5   
    1961;  1732.5007;            5   
    1962;  1733.3760;            1   
    1963;  1734.2513;            5   
    1964;  1735.1265;            1   
    1965;  1736.0018;            2   
    1966;  1736.8771;            2   
    1967;  1737.7524;            3   
    1968;  1738.6276;            3   
    1969;  1739.5029;            2   
    1970;  1740.3782;            2   
    1971;  1741.2535;            7   
    1972;  1742.1287;            5   
    1973;  1743.0040;            5   
    1974;  1743.8793;            6   
    1975;  1744.7546;            4   
    1976;  1745.6298;            2   
    1977;  1746.5051;            2   
    1978;  1747.3804;            8   
    1979;  1748.2557;            2   
    1980;  1749.1309;            0   
    1981;  1750.0062;            0   
    1982;  1750.8815;            0   
    1983;  1751.7568;            0   
    1984;  1752.6320;            0   
    1985;  1753.5073;            0   
    1986;  1754.3826;            0   
    1987;  1755.2579;            0   
    1988;  1756.1331;            0   
    1989;  1757.0084;            0   
    1990;  1757.8837;            0   
    1991;  1758.7590;            0   
    1992;  1759.6342;            0   
    1993;  1760.5095;            0   
    1994;  1761.3848;            0   
    1995;  1762.2601;            0   
    1996;  1763.1353;            0   
    1997;  1764.0106;            0   
    1998;  1764.8859;            0   
    1999;  1765.7612;            0   
    2000;  1766.6364;            0   
    2001;  1767.5117;            0   
    2002;  1768.3870;            0   
    2003;  1769.2623;            0   
    2004;  1770.1375;            0   
    2005;  1771.0128;            0   
    2006;  1771.8881;            0   
    2007;  1772.7634;            0   
    2008;  1773.6386;            0   
    2009;  1774.5139;            0   
    2010;  1775.3892;            0   
    2011;  1776.2645;            0   
    2012;  1777.1397;            0   
    2013;  1778.0150;            0   
    2014;  1778.8903;            0   
    2015;  1779.7656;            0   
    2016;  1780.6408;            0   
    2017;  1781.5161;            0   
    2018;  1782.3914;            0   
    2019;  1783.2667;            0   
    2020;  1784.1419;            0   
    2021;  1785.0172;            0   
    2022;  1785.8925;            0   
    2023;  1786.7678;            0   
    2024;  1787.6430;            0   
    2025;  1788.5183;            0   
    2026;  1789.3936;            0   
    2027;  1790.2689;            0   
    2028;  1791.1441;            0   
    2029;  1792.0194;            0   
    2030;  1792.8947;            0   
    2031;  1793.7700;            0   
    2032;  1794.6452;            0   
    2033;  1795.5205;            0   
    2034;  1796.3958;            0   
    2035;  1797.2711;            0   
    2036;  1798.1463;            0   
    2037;  1799.0216;            0   
    2038;  1799.8969;            0   
    2039;  1800.7722;            0   
    2040;  1801.6474;            0   
    2041;  1802.5227;            0   
    2042;  1803.3980;            0   
    2043;  1804.2733;            0   
    2044;  1805.1485;            0   
    2045;  1806.0238;            0   
    2046;  1806.8991;            0   
    2047;  1807.7744;            0   
    2048;  1808.6496;            0   
ROI Nummer; Anfangskanal; Endkanal; Anfangsenergie keV ; Endenergie keV; Nettoimpulse; Bruttoimpulse; Untergrundimpulse
In den Daten wurden keine Linien gefunden
ROI Nummer; prozentualer Fehler der Lage; Lage keV; FWHM keV; FWTM keV; FWTM/FWHM Verhltnis; H/L Verhltnis
No Peak records found in data.
Name; Energie keV; Flags; Aktivitt uCi/Unit; Aktivittsfehler %; NWG uCi/Unit; MDA Error %
Es wurden keine Nuklidergebnisse gefunden.
Name; Erwartete Endergie keV; Gemessene Energie keV; Differenz von erwarteter keV; FWHM; Flags; Aktivitt uCi/Unit; Aktivittsfehler %
Es wurden keine Nuklidergebnisse gefunden.
