Kanal;   Energie(keV); Impulse
       1;    16.9617;          627   
       2;    17.8370;          612   
       3;    18.7122;          662   
       4;    19.5875;          615   
       5;    20.4628;          577   
       6;    21.3381;          539   
       7;    22.2133;          569   
       8;    23.0886;          566   
       9;    23.9639;          572   
      10;    24.8392;          522   
      11;    25.7144;          486   
      12;    26.5897;          470   
      13;    27.4650;          469   
      14;    28.3403;          474   
      15;    29.2155;          462   
      16;    30.0908;          439   
      17;    30.9661;          483   
      18;    31.8414;          445   
      19;    32.7166;          480   
      20;    33.5919;          479   
      21;    34.4672;          487   
      22;    35.3425;          445   
      23;    36.2177;          410   
      24;    37.0930;          444   
      25;    37.9683;          463   
      26;    38.8436;          472   
      27;    39.7188;          453   
      28;    40.5941;          450   
      29;    41.4694;          530   
      30;    42.3447;          545   
      31;    43.2199;          564   
      32;    44.0952;          453   
      33;    44.9705;          429   
      34;    45.8458;          393   
      35;    46.7210;          473   
      36;    47.5963;          546   
      37;    48.4716;          564   
      38;    49.3469;          477   
      39;    50.2221;          373   
      40;    51.0974;          389   
      41;    51.9727;          360   
      42;    52.8480;          384   
      43;    53.7232;          403   
      44;    54.5985;          352   
      45;    55.4738;          325   
      46;    56.3491;          355   
      47;    57.2243;          347   
      48;    58.0996;          360   
      49;    58.9749;          357   
      50;    59.8502;          359   
      51;    60.7254;          390   
      52;    61.6007;          363   
      53;    62.4760;          365   
      54;    63.3513;          383   
      55;    64.2265;          346   
      56;    65.1018;          385   
      57;    65.9771;          417   
      58;    66.8524;          414   
      59;    67.7276;          433   
      60;    68.6029;          391   
      61;    69.4782;          432   
      62;    70.3535;          421   
      63;    71.2287;          431   
      64;    72.1040;          424   
      65;    72.9793;          505   
      66;    73.8546;          481   
      67;    74.7298;          702   
      68;    75.6051;         1059   
      69;    76.4804;          970   
      70;    77.3557;         1459   
      71;    78.2309;         1284   
      72;    79.1062;          634   
      73;    79.9815;          513   
      74;    80.8568;          526   
      75;    81.7320;          510   
      76;    82.6073;          540   
      77;    83.4826;          577   
      78;    84.3579;          569   
      79;    85.2331;          671   
      80;    86.1084;          811   
      81;    86.9837;         1102   
      82;    87.8590;         1189   
      83;    88.7342;          974   
      84;    89.6095;          829   
      85;    90.4848;          772   
      86;    91.3601;          718   
      87;    92.2353;          681   
      88;    93.1106;          610   
      89;    93.9859;          599   
      90;    94.8612;          663   
      91;    95.7364;          680   
      92;    96.6117;          679   
      93;    97.4870;          662   
      94;    98.3623;          642   
      95;    99.2375;          632   
      96;   100.1128;          668   
      97;   100.9881;          596   
      98;   101.8634;          666   
      99;   102.7386;          579   
     100;   103.6139;          628   
     101;   104.4892;          661   
     102;   105.3645;          671   
     103;   106.2397;          617   
     104;   107.1150;          651   
     105;   107.9903;          594   
     106;   108.8656;          652   
     107;   109.7408;          632   
     108;   110.6161;          659   
     109;   111.4914;          642   
     110;   112.3667;          631   
     111;   113.2419;          627   
     112;   114.1172;          670   
     113;   114.9925;          639   
     114;   115.8678;          650   
     115;   116.7430;          673   
     116;   117.6183;          609   
     117;   118.4936;          646   
     118;   119.3689;          639   
     119;   120.2441;          665   
     120;   121.1194;          640   
     121;   121.9947;          679   
     122;   122.8700;          880   
     123;   123.7452;         4228   
     124;   124.6205;        11650   
     125;   125.4958;         7306   
     126;   126.3711;         1490   
     127;   127.2463;          582   
     128;   128.1216;          590   
     129;   128.9969;          541   
     130;   129.8722;          528   
     131;   130.7474;          520   
     132;   131.6227;          527   
     133;   132.4980;          565   
     134;   133.3733;          536   
     135;   134.2485;          547   
     136;   135.1238;          526   
     137;   135.9991;          500   
     138;   136.8744;          519   
     139;   137.7496;          501   
     140;   138.6249;          516   
     141;   139.5002;          536   
     142;   140.3755;          523   
     143;   141.2507;          540   
     144;   142.1260;          519   
     145;   143.0013;          486   
     146;   143.8766;          504   
     147;   144.7518;          454   
     148;   145.6271;          487   
     149;   146.5024;          498   
     150;   147.3777;          470   
     151;   148.2529;          526   
     152;   149.1282;          534   
     153;   150.0035;          558   
     154;   150.8788;          501   
     155;   151.7540;          563   
     156;   152.6293;          566   
     157;   153.5046;          516   
     158;   154.3799;          516   
     159;   155.2551;          564   
     160;   156.1304;          552   
     161;   157.0057;          531   
     162;   157.8810;          521   
     163;   158.7562;          520   
     164;   159.6315;          534   
     165;   160.5068;          529   
     166;   161.3821;          471   
     167;   162.2573;          501   
     168;   163.1326;          500   
     169;   164.0079;          502   
     170;   164.8832;          492   
     171;   165.7584;          516   
     172;   166.6337;          531   
     173;   167.5090;          464   
     174;   168.3843;          489   
     175;   169.2595;          472   
     176;   170.1348;          472   
     177;   171.0101;          469   
     178;   171.8854;          475   
     179;   172.7606;          532   
     180;   173.6359;          495   
     181;   174.5112;          493   
     182;   175.3865;          480   
     183;   176.2617;          474   
     184;   177.1370;          482   
     185;   178.0123;          479   
     186;   178.8876;          481   
     187;   179.7628;          484   
     188;   180.6381;          504   
     189;   181.5134;          440   
     190;   182.3887;          441   
     191;   183.2639;          455   
     192;   184.1392;          446   
     193;   185.0145;          426   
     194;   185.8898;          470   
     195;   186.7650;          446   
     196;   187.6403;          440   
     197;   188.5156;          465   
     198;   189.3909;          485   
     199;   190.2661;          429   
     200;   191.1414;          430   
     201;   192.0167;          416   
     202;   192.8920;          439   
     203;   193.7672;          430   
     204;   194.6425;          472   
     205;   195.5178;          442   
     206;   196.3931;          446   
     207;   197.2683;          443   
     208;   198.1436;          422   
     209;   199.0189;          411   
     210;   199.8942;          461   
     211;   200.7694;          397   
     212;   201.6447;          391   
     213;   202.5200;          419   
     214;   203.3953;          364   
     215;   204.2705;          378   
     216;   205.1458;          396   
     217;   206.0211;          400   
     218;   206.8964;          386   
     219;   207.7716;          386   
     220;   208.6469;          396   
     221;   209.5222;          389   
     222;   210.3975;          387   
     223;   211.2727;          383   
     224;   212.1480;          424   
     225;   213.0233;          397   
     226;   213.8986;          404   
     227;   214.7738;          359   
     228;   215.6491;          387   
     229;   216.5244;          390   
     230;   217.3997;          388   
     231;   218.2749;          377   
     232;   219.1502;          349   
     233;   220.0255;          363   
     234;   220.9008;          356   
     235;   221.7760;          391   
     236;   222.6513;          322   
     237;   223.5266;          360   
     238;   224.4019;          359   
     239;   225.2771;          348   
     240;   226.1524;          334   
     241;   227.0277;          345   
     242;   227.9030;          314   
     243;   228.7782;          336   
     244;   229.6535;          332   
     245;   230.5288;          323   
     246;   231.4041;          330   
     247;   232.2793;          292   
     248;   233.1546;          325   
     249;   234.0299;          352   
     250;   234.9052;          313   
     251;   235.7804;          297   
     252;   236.6557;          307   
     253;   237.5310;          299   
     254;   238.4063;          305   
     255;   239.2815;          280   
     256;   240.1568;          287   
     257;   241.0321;          291   
     258;   241.9074;          349   
     259;   242.7826;          380   
     260;   243.6579;          294   
     261;   244.5332;          286   
     262;   245.4085;          274   
     263;   246.2837;          325   
     264;   247.1590;          636   
     265;   248.0343;         2112   
     266;   248.9096;         2283   
     267;   249.7848;          821   
     268;   250.6601;          304   
     269;   251.5354;          283   
     270;   252.4107;          256   
     271;   253.2859;          247   
     272;   254.1612;          238   
     273;   255.0365;          258   
     274;   255.9118;          250   
     275;   256.7870;          247   
     276;   257.6623;          222   
     277;   258.5376;          229   
     278;   259.4129;          250   
     279;   260.2881;          268   
     280;   261.1634;          269   
     281;   262.0387;          226   
     282;   262.9140;          217   
     283;   263.7892;          267   
     284;   264.6645;          238   
     285;   265.5398;          249   
     286;   266.4151;          225   
     287;   267.2903;          235   
     288;   268.1656;          224   
     289;   269.0409;          242   
     290;   269.9162;          227   
     291;   270.7914;          240   
     292;   271.6667;          236   
     293;   272.5420;          221   
     294;   273.4173;          230   
     295;   274.2925;          240   
     296;   275.1678;          235   
     297;   276.0431;          242   
     298;   276.9184;          196   
     299;   277.7936;          217   
     300;   278.6689;          201   
     301;   279.5442;          225   
     302;   280.4195;          210   
     303;   281.2947;          203   
     304;   282.1700;          215   
     305;   283.0453;          223   
     306;   283.9206;          194   
     307;   284.7958;          198   
     308;   285.6711;          194   
     309;   286.5464;          192   
     310;   287.4217;          197   
     311;   288.2969;          226   
     312;   289.1722;          207   
     313;   290.0475;          183   
     314;   290.9228;          216   
     315;   291.7980;          197   
     316;   292.6733;          193   
     317;   293.5486;          204   
     318;   294.4239;          170   
     319;   295.2991;          202   
     320;   296.1744;          214   
     321;   297.0497;          204   
     322;   297.9250;          184   
     323;   298.8002;          234   
     324;   299.6755;          312   
     325;   300.5508;          273   
     326;   301.4261;          221   
     327;   302.3013;          200   
     328;   303.1766;          202   
     329;   304.0519;          194   
     330;   304.9272;          161   
     331;   305.8024;          161   
     332;   306.6777;          165   
     333;   307.5530;          162   
     334;   308.4283;          177   
     335;   309.3035;          175   
     336;   310.1788;          189   
     337;   311.0541;          183   
     338;   311.9294;          157   
     339;   312.8046;          162   
     340;   313.6799;          167   
     341;   314.5552;          163   
     342;   315.4305;          160   
     343;   316.3057;          152   
     344;   317.1810;          161   
     345;   318.0563;          199   
     346;   318.9316;          169   
     347;   319.8068;          184   
     348;   320.6821;          183   
     349;   321.5574;          182   
     350;   322.4327;          175   
     351;   323.3079;          175   
     352;   324.1832;          170   
     353;   325.0585;          170   
     354;   325.9338;          157   
     355;   326.8090;          173   
     356;   327.6843;          170   
     357;   328.5596;          176   
     358;   329.4349;          176   
     359;   330.3101;          191   
     360;   331.1854;          174   
     361;   332.0607;          138   
     362;   332.9360;          170   
     363;   333.8112;          199   
     364;   334.6865;          166   
     365;   335.5618;          150   
     366;   336.4371;          169   
     367;   337.3123;          151   
     368;   338.1876;          140   
     369;   339.0629;          187   
     370;   339.9382;          167   
     371;   340.8134;          155   
     372;   341.6887;          146   
     373;   342.5640;          176   
     374;   343.4393;          160   
     375;   344.3145;          163   
     376;   345.1898;          149   
     377;   346.0651;          165   
     378;   346.9404;          407   
     379;   347.8156;         2673   
     380;   348.6909;         6058   
     381;   349.5662;         3564   
     382;   350.4415;          702   
     383;   351.3167;          177   
     384;   352.1920;          127   
     385;   353.0673;          140   
     386;   353.9426;          129   
     387;   354.8178;          133   
     388;   355.6931;          156   
     389;   356.5684;          179   
     390;   357.4437;          162   
     391;   358.3189;          135   
     392;   359.1942;          129   
     393;   360.0695;          104   
     394;   360.9448;          125   
     395;   361.8200;          121   
     396;   362.6953;          124   
     397;   363.5706;          125   
     398;   364.4459;          143   
     399;   365.3211;          134   
     400;   366.1964;          124   
     401;   367.0717;          123   
     402;   367.9470;          102   
     403;   368.8222;          141   
     404;   369.6975;          129   
     405;   370.5728;          133   
     406;   371.4481;          168   
     407;   372.3233;          315   
     408;   373.1986;          215   
     409;   374.0739;          123   
     410;   374.9492;          149   
     411;   375.8244;          127   
     412;   376.6997;          137   
     413;   377.5750;          126   
     414;   378.4503;          115   
     415;   379.3255;          120   
     416;   380.2008;           98   
     417;   381.0761;          122   
     418;   381.9514;          117   
     419;   382.8266;          111   
     420;   383.7019;          119   
     421;   384.5772;          115   
     422;   385.4525;          105   
     423;   386.3277;          118   
     424;   387.2030;          104   
     425;   388.0783;          106   
     426;   388.9536;          116   
     427;   389.8288;          126   
     428;   390.7041;          119   
     429;   391.5794;          128   
     430;   392.4547;          115   
     431;   393.3299;          103   
     432;   394.2052;          124   
     433;   395.0805;          105   
     434;   395.9558;          114   
     435;   396.8310;          127   
     436;   397.7063;          100   
     437;   398.5816;          104   
     438;   399.4569;          104   
     439;   400.3321;           97   
     440;   401.2074;          102   
     441;   402.0827;          102   
     442;   402.9580;           99   
     443;   403.8332;          103   
     444;   404.7085;           93   
     445;   405.5838;           84   
     446;   406.4591;           92   
     447;   407.3343;          125   
     448;   408.2096;          119   
     449;   409.0849;          103   
     450;   409.9602;          104   
     451;   410.8354;          115   
     452;   411.7107;           95   
     453;   412.5860;          123   
     454;   413.4613;          116   
     455;   414.3365;          133   
     456;   415.2118;          341   
     457;   416.0871;          465   
     458;   416.9624;          315   
     459;   417.8376;          143   
     460;   418.7129;           91   
     461;   419.5882;          108   
     462;   420.4635;          121   
     463;   421.3387;          129   
     464;   422.2140;          103   
     465;   423.0893;           98   
     466;   423.9646;           88   
     467;   424.8398;           94   
     468;   425.7151;          114   
     469;   426.5904;           99   
     470;   427.4657;          119   
     471;   428.3409;          112   
     472;   429.2162;           95   
     473;   430.0915;           99   
     474;   430.9668;           98   
     475;   431.8420;           88   
     476;   432.7173;          100   
     477;   433.5926;          107   
     478;   434.4679;          111   
     479;   435.3431;           98   
     480;   436.2184;          118   
     481;   437.0937;           98   
     482;   437.9690;          106   
     483;   438.8442;           95   
     484;   439.7195;           91   
     485;   440.5948;           93   
     486;   441.4701;          111   
     487;   442.3453;          107   
     488;   443.2206;          110   
     489;   444.0959;          101   
     490;   444.9712;           66   
     491;   445.8464;          115   
     492;   446.7217;          111   
     493;   447.5970;          181   
     494;   448.4723;          441   
     495;   449.3475;          636   
     496;   450.2228;          324   
     497;   451.0981;          126   
     498;   451.9734;           98   
     499;   452.8486;          108   
     500;   453.7239;           82   
     501;   454.5992;           79   
     502;   455.4745;           87   
     503;   456.3497;          111   
     504;   457.2250;           93   
     505;   458.1003;          100   
     506;   458.9756;           94   
     507;   459.8508;          108   
     508;   460.7261;           79   
     509;   461.6014;           78   
     510;   462.4767;          107   
     511;   463.3519;           83   
     512;   464.2272;           93   
     513;   465.1025;           88   
     514;   465.9778;           98   
     515;   466.8530;          104   
     516;   467.7283;           98   
     517;   468.6036;          112   
     518;   469.4789;           98   
     519;   470.3541;           80   
     520;   471.2294;           82   
     521;   472.1047;           86   
     522;   472.9800;           81   
     523;   473.8552;           93   
     524;   474.7305;           82   
     525;   475.6058;           84   
     526;   476.4811;           87   
     527;   477.3563;          108   
     528;   478.2316;           78   
     529;   479.1069;           84   
     530;   479.9822;           80   
     531;   480.8574;           97   
     532;   481.7327;           90   
     533;   482.6080;           95   
     534;   483.4833;           88   
     535;   484.3585;           92   
     536;   485.2338;           80   
     537;   486.1091;           86   
     538;   486.9844;           75   
     539;   487.8596;           93   
     540;   488.7349;           95   
     541;   489.6102;           81   
     542;   490.4855;           75   
     543;   491.3607;          113   
     544;   492.2360;           88   
     545;   493.1113;          102   
     546;   493.9866;          153   
     547;   494.8618;          136   
     548;   495.7371;          101   
     549;   496.6124;           95   
     550;   497.4877;          103   
     551;   498.3629;           86   
     552;   499.2382;          105   
     553;   500.1135;           81   
     554;   500.9888;           87   
     555;   501.8640;           95   
     556;   502.7393;           79   
     557;   503.6146;           99   
     558;   504.4899;           81   
     559;   505.3651;           98   
     560;   506.2404;           92   
     561;   507.1157;           99   
     562;   507.9910;          103   
     563;   508.8662;          112   
     564;   509.7415;           88   
     565;   510.6168;           74   
     566;   511.4921;           89   
     567;   512.3673;           91   
     568;   513.2426;           79   
     569;   514.1179;           90   
     570;   514.9932;           92   
     571;   515.8684;          147   
     572;   516.7437;          141   
     573;   517.6190;          134   
     574;   518.4943;          108   
     575;   519.3695;           59   
     576;   520.2448;           81   
     577;   521.1201;           88   
     578;   521.9954;           79   
     579;   522.8706;           90   
     580;   523.7459;           82   
     581;   524.6212;           93   
     582;   525.4965;           84   
     583;   526.3717;           82   
     584;   527.2470;           86   
     585;   528.1223;           85   
     586;   528.9976;           84   
     587;   529.8728;           89   
     588;   530.7481;           93   
     589;   531.6234;           80   
     590;   532.4987;           84   
     591;   533.3739;           90   
     592;   534.2492;           78   
     593;   535.1245;           91   
     594;   535.9998;           73   
     595;   536.8750;           89   
     596;   537.7503;           74   
     597;   538.6256;           89   
     598;   539.5009;           89   
     599;   540.3761;           86   
     600;   541.2514;          110   
     601;   542.1267;           82   
     602;   543.0020;           74   
     603;   543.8772;           90   
     604;   544.7525;           60   
     605;   545.6278;           79   
     606;   546.5031;           73   
     607;   547.3783;           85   
     608;   548.2536;           77   
     609;   549.1289;           69   
     610;   550.0042;           78   
     611;   550.8794;           77   
     612;   551.7547;           89   
     613;   552.6300;           86   
     614;   553.5053;           91   
     615;   554.3805;           70   
     616;   555.2558;           79   
     617;   556.1311;           77   
     618;   557.0064;           94   
     619;   557.8816;          100   
     620;   558.7569;           73   
     621;   559.6322;           97   
     622;   560.5075;           75   
     623;   561.3827;           82   
     624;   562.2580;           86   
     625;   563.1333;           96   
     626;   564.0086;           91   
     627;   564.8838;           79   
     628;   565.7591;           78   
     629;   566.6344;           72   
     630;   567.5097;           90   
     631;   568.3849;           93   
     632;   569.2602;          145   
     633;   570.1355;          157   
     634;   571.0108;          119   
     635;   571.8860;           78   
     636;   572.7613;          106   
     637;   573.6366;           99   
     638;   574.5119;           88   
     639;   575.3871;           89   
     640;   576.2624;           93   
     641;   577.1377;           77   
     642;   578.0130;           73   
     643;   578.8882;           84   
     644;   579.7635;           81   
     645;   580.6388;           95   
     646;   581.5141;           76   
     647;   582.3893;           94   
     648;   583.2646;           86   
     649;   584.1399;           86   
     650;   585.0152;           91   
     651;   585.8904;           98   
     652;   586.7657;           77   
     653;   587.6410;           84   
     654;   588.5163;          143   
     655;   589.3915;          126   
     656;   590.2668;          111   
     657;   591.1421;          136   
     658;   592.0174;          110   
     659;   592.8926;          147   
     660;   593.7679;          104   
     661;   594.6432;           81   
     662;   595.5185;           76   
     663;   596.3937;           86   
     664;   597.2690;           97   
     665;   598.1443;           82   
     666;   599.0196;           74   
     667;   599.8948;           87   
     668;   600.7701;           78   
     669;   601.6454;           81   
     670;   602.5207;           61   
     671;   603.3959;           66   
     672;   604.2712;           71   
     673;   605.1465;           63   
     674;   606.0218;           56   
     675;   606.8970;           67   
     676;   607.7723;           76   
     677;   608.6476;           64   
     678;   609.5229;           80   
     679;   610.3981;           72   
     680;   611.2734;           82   
     681;   612.1487;           80   
     682;   613.0240;           58   
     683;   613.8992;           81   
     684;   614.7745;          129   
     685;   615.6498;          134   
     686;   616.5251;          109   
     687;   617.4003;           83   
     688;   618.2756;           57   
     689;   619.1509;           67   
     690;   620.0262;           65   
     691;   620.9014;           63   
     692;   621.7767;           76   
     693;   622.6520;           71   
     694;   623.5273;           71   
     695;   624.4025;           69   
     696;   625.2778;           65   
     697;   626.1531;           75   
     698;   627.0284;           69   
     699;   627.9036;           78   
     700;   628.7789;           74   
     701;   629.6542;           83   
     702;   630.5295;           62   
     703;   631.4047;           72   
     704;   632.2800;           64   
     705;   633.1553;           88   
     706;   634.0306;           65   
     707;   634.9058;           76   
     708;   635.7811;           68   
     709;   636.6564;           70   
     710;   637.5317;           72   
     711;   638.4069;           69   
     712;   639.2822;           79   
     713;   640.1575;           77   
     714;   641.0328;           77   
     715;   641.9080;           52   
     716;   642.7833;           77   
     717;   643.6586;           81   
     718;   644.5339;           63   
     719;   645.4091;           61   
     720;   646.2844;           72   
     721;   647.1597;           91   
     722;   648.0350;           67   
     723;   648.9102;           68   
     724;   649.7855;           60   
     725;   650.6608;           65   
     726;   651.5361;           70   
     727;   652.4113;           67   
     728;   653.2866;           72   
     729;   654.1619;           75   
     730;   655.0372;           71   
     731;   655.9124;           69   
     732;   656.7877;           66   
     733;   657.6630;           67   
     734;   658.5383;           74   
     735;   659.4135;           59   
     736;   660.2888;           66   
     737;   661.1641;           56   
     738;   662.0394;           77   
     739;   662.9146;           94   
     740;   663.7899;           72   
     741;   664.6652;           71   
     742;   665.5405;           66   
     743;   666.4157;           56   
     744;   667.2910;           83   
     745;   668.1663;           95   
     746;   669.0416;          116   
     747;   669.9168;           77   
     748;   670.7921;           63   
     749;   671.6674;           62   
     750;   672.5427;           58   
     751;   673.4179;           71   
     752;   674.2932;           68   
     753;   675.1685;           63   
     754;   676.0438;           68   
     755;   676.9190;           73   
     756;   677.7943;           58   
     757;   678.6696;           72   
     758;   679.5449;           45   
     759;   680.4201;           78   
     760;   681.2954;           91   
     761;   682.1707;           76   
     762;   683.0460;           73   
     763;   683.9212;           83   
     764;   684.7965;          102   
     765;   685.6718;          121   
     766;   686.5471;           75   
     767;   687.4223;           51   
     768;   688.2976;           70   
     769;   689.1729;           65   
     770;   690.0482;           80   
     771;   690.9234;           65   
     772;   691.7987;           61   
     773;   692.6740;           71   
     774;   693.5493;           70   
     775;   694.4245;          109   
     776;   695.2998;          159   
     777;   696.1751;          129   
     778;   697.0504;          106   
     779;   697.9256;           61   
     780;   698.8009;           66   
     781;   699.6762;           71   
     782;   700.5515;           59   
     783;   701.4267;           55   
     784;   702.3020;           48   
     785;   703.1773;           63   
     786;   704.0526;           55   
     787;   704.9278;           73   
     788;   705.8031;           59   
     789;   706.6784;           72   
     790;   707.5537;           53   
     791;   708.4289;           61   
     792;   709.3042;           67   
     793;   710.1795;           76   
     794;   711.0548;           79   
     795;   711.9300;           71   
     796;   712.8053;           69   
     797;   713.6806;           61   
     798;   714.5559;           63   
     799;   715.4311;           64   
     800;   716.3064;           56   
     801;   717.1817;           65   
     802;   718.0570;           69   
     803;   718.9322;           72   
     804;   719.8075;           70   
     805;   720.6828;           66   
     806;   721.5581;           74   
     807;   722.4333;           57   
     808;   723.3086;           64   
     809;   724.1839;           69   
     810;   725.0592;           72   
     811;   725.9344;           87   
     812;   726.8097;           93   
     813;   727.6850;           83   
     814;   728.5603;           64   
     815;   729.4355;           68   
     816;   730.3108;           71   
     817;   731.1861;           74   
     818;   732.0614;           68   
     819;   732.9366;           50   
     820;   733.8119;           74   
     821;   734.6872;           69   
     822;   735.5625;           65   
     823;   736.4377;           66   
     824;   737.3130;           68   
     825;   738.1883;           75   
     826;   739.0636;           72   
     827;   739.9388;           54   
     828;   740.8141;           60   
     829;   741.6894;           61   
     830;   742.5647;           70   
     831;   743.4399;           78   
     832;   744.3152;           72   
     833;   745.1905;           60   
     834;   746.0658;           58   
     835;   746.9410;           64   
     836;   747.8163;           56   
     837;   748.6916;           71   
     838;   749.5669;           67   
     839;   750.4421;           59   
     840;   751.3174;           63   
     841;   752.1927;           57   
     842;   753.0680;           68   
     843;   753.9432;           76   
     844;   754.8185;           70   
     845;   755.6938;           76   
     846;   756.5691;           63   
     847;   757.4443;           76   
     848;   758.3196;           70   
     849;   759.1949;           55   
     850;   760.0702;           66   
     851;   760.9454;           59   
     852;   761.8207;           68   
     853;   762.6960;           72   
     854;   763.5713;           66   
     855;   764.4465;           72   
     856;   765.3218;           58   
     857;   766.1971;           50   
     858;   767.0724;           65   
     859;   767.9476;           69   
     860;   768.8229;           65   
     861;   769.6982;           62   
     862;   770.5735;           66   
     863;   771.4487;           90   
     864;   772.3240;           63   
     865;   773.1993;           66   
     866;   774.0746;           72   
     867;   774.9498;           59   
     868;   775.8251;           63   
     869;   776.7004;           71   
     870;   777.5757;           61   
     871;   778.4509;           58   
     872;   779.3262;           57   
     873;   780.2015;           57   
     874;   781.0768;           64   
     875;   781.9520;           60   
     876;   782.8273;           64   
     877;   783.7026;           82   
     878;   784.5779;          230   
     879;   785.4531;          818   
     880;   786.3284;         1353   
     881;   787.2037;          729   
     882;   788.0790;          203   
     883;   788.9542;           42   
     884;   789.8295;           58   
     885;   790.7048;           50   
     886;   791.5801;           54   
     887;   792.4553;           51   
     888;   793.3306;           43   
     889;   794.2059;           52   
     890;   795.0812;           61   
     891;   795.9564;           54   
     892;   796.8317;           56   
     893;   797.7070;           58   
     894;   798.5823;           56   
     895;   799.4575;           58   
     896;   800.3328;           69   
     897;   801.2081;           58   
     898;   802.0834;           78   
     899;   802.9586;           54   
     900;   803.8339;           60   
     901;   804.7092;           57   
     902;   805.5845;           49   
     903;   806.4597;           50   
     904;   807.3350;           68   
     905;   808.2103;           52   
     906;   809.0856;           58   
     907;   809.9608;           59   
     908;   810.8361;           67   
     909;   811.7114;           62   
     910;   812.5867;           50   
     911;   813.4619;           55   
     912;   814.3372;           49   
     913;   815.2125;           69   
     914;   816.0878;           53   
     915;   816.9631;           59   
     916;   817.8383;           97   
     917;   818.7136;           67   
     918;   819.5889;           55   
     919;   820.4642;           50   
     920;   821.3394;           43   
     921;   822.2147;           57   
     922;   823.0900;           41   
     923;   823.9653;           61   
     924;   824.8405;           44   
     925;   825.7158;           48   
     926;   826.5911;           61   
     927;   827.4664;           50   
     928;   828.3416;           54   
     929;   829.2169;           54   
     930;   830.0922;           60   
     931;   830.9675;           41   
     932;   831.8427;           51   
     933;   832.7180;           50   
     934;   833.5933;           59   
     935;   834.4686;           43   
     936;   835.3438;           38   
     937;   836.2191;           45   
     938;   837.0944;           41   
     939;   837.9697;           58   
     940;   838.8449;           65   
     941;   839.7202;           52   
     942;   840.5955;           69   
     943;   841.4708;           44   
     944;   842.3460;           67   
     945;   843.2213;           46   
     946;   844.0966;           53   
     947;   844.9719;           44   
     948;   845.8471;           59   
     949;   846.7224;           45   
     950;   847.5977;           60   
     951;   848.4730;           65   
     952;   849.3482;           81   
     953;   850.2235;           50   
     954;   851.0988;           48   
     955;   851.9741;           53   
     956;   852.8493;           55   
     957;   853.7246;           69   
     958;   854.5999;           55   
     959;   855.4752;           50   
     960;   856.3504;           47   
     961;   857.2257;           56   
     962;   858.1010;           64   
     963;   858.9763;           45   
     964;   859.8515;           51   
     965;   860.7268;           55   
     966;   861.6021;           62   
     967;   862.4774;           51   
     968;   863.3526;           51   
     969;   864.2279;           56   
     970;   865.1032;           65   
     971;   865.9785;           63   
     972;   866.8537;           51   
     973;   867.7290;           77   
     974;   868.6043;           69   
     975;   869.4796;           62   
     976;   870.3548;           52   
     977;   871.2301;           59   
     978;   872.1054;           56   
     979;   872.9807;           68   
     980;   873.8559;          129   
     981;   874.7312;          366   
     982;   875.6065;          418   
     983;   876.4818;          210   
     984;   877.3570;           83   
     985;   878.2323;           49   
     986;   879.1076;           55   
     987;   879.9829;           53   
     988;   880.8581;           63   
     989;   881.7334;           53   
     990;   882.6087;           37   
     991;   883.4840;           57   
     992;   884.3592;           60   
     993;   885.2345;           46   
     994;   886.1098;           58   
     995;   886.9851;           57   
     996;   887.8603;           47   
     997;   888.7356;           52   
     998;   889.6109;           48   
     999;   890.4862;           61   
    1000;   891.3614;           51   
    1001;   892.2367;           52   
    1002;   893.1120;           46   
    1003;   893.9873;           46   
    1004;   894.8625;           47   
    1005;   895.7378;           54   
    1006;   896.6131;           44   
    1007;   897.4884;           48   
    1008;   898.3636;           66   
    1009;   899.2389;           50   
    1010;   900.1142;           46   
    1011;   900.9895;           54   
    1012;   901.8647;           45   
    1013;   902.7400;           55   
    1014;   903.6153;           55   
    1015;   904.4906;           60   
    1016;   905.3658;           39   
    1017;   906.2411;           56   
    1018;   907.1164;           48   
    1019;   907.9917;           44   
    1020;   908.8669;           69   
    1021;   909.7422;           58   
    1022;   910.6175;           42   
    1023;   911.4928;           49   
    1024;   912.3680;           41   
    1025;   913.2433;           38   
    1026;   914.1186;           49   
    1027;   914.9939;           51   
    1028;   915.8691;           46   
    1029;   916.7444;           46   
    1030;   917.6197;           40   
    1031;   918.4950;           60   
    1032;   919.3702;           76   
    1033;   920.2455;           63   
    1034;   921.1208;           43   
    1035;   921.9961;           49   
    1036;   922.8713;           50   
    1037;   923.7466;           34   
    1038;   924.6219;           47   
    1039;   925.4972;           35   
    1040;   926.3724;           63   
    1041;   927.2477;           77   
    1042;   928.1230;           65   
    1043;   928.9983;           48   
    1044;   929.8735;           39   
    1045;   930.7488;           41   
    1046;   931.6241;           43   
    1047;   932.4994;           48   
    1048;   933.3746;           48   
    1049;   934.2499;           49   
    1050;   935.1252;           52   
    1051;   936.0005;           35   
    1052;   936.8757;           27   
    1053;   937.7510;           39   
    1054;   938.6263;           46   
    1055;   939.5016;           40   
    1056;   940.3768;           44   
    1057;   941.2521;           32   
    1058;   942.1274;           46   
    1059;   943.0027;           35   
    1060;   943.8779;           34   
    1061;   944.7532;           31   
    1062;   945.6285;           35   
    1063;   946.5038;           35   
    1064;   947.3790;           40   
    1065;   948.2543;           41   
    1066;   949.1296;           34   
    1067;   950.0049;           41   
    1068;   950.8801;           36   
    1069;   951.7554;           41   
    1070;   952.6307;           36   
    1071;   953.5060;           35   
    1072;   954.3812;           33   
    1073;   955.2565;           37   
    1074;   956.1318;           31   
    1075;   957.0071;           35   
    1076;   957.8823;           35   
    1077;   958.7576;           40   
    1078;   959.6329;           40   
    1079;   960.5082;           39   
    1080;   961.3834;           34   
    1081;   962.2587;           38   
    1082;   963.1340;           28   
    1083;   964.0093;           42   
    1084;   964.8845;           34   
    1085;   965.7598;           40   
    1086;   966.6351;           30   
    1087;   967.5104;           39   
    1088;   968.3856;           34   
    1089;   969.2609;           60   
    1090;   970.1362;           71   
    1091;   971.0115;          350   
    1092;   971.8867;          844   
    1093;   972.7620;         1073   
    1094;   973.6373;          517   
    1095;   974.5126;          140   
    1096;   975.3878;           56   
    1097;   976.2631;           50   
    1098;   977.1384;           48   
    1099;   978.0137;           49   
    1100;   978.8889;           32   
    1101;   979.7642;           34   
    1102;   980.6395;           44   
    1103;   981.5148;           33   
    1104;   982.3900;           34   
    1105;   983.2653;           28   
    1106;   984.1406;           19   
    1107;   985.0159;           23   
    1108;   985.8911;           31   
    1109;   986.7664;           37   
    1110;   987.6417;           28   
    1111;   988.5170;           31   
    1112;   989.3922;           27   
    1113;   990.2675;           28   
    1114;   991.1428;           28   
    1115;   992.0181;           26   
    1116;   992.8933;           26   
    1117;   993.7686;           32   
    1118;   994.6439;           26   
    1119;   995.5192;           31   
    1120;   996.3944;           22   
    1121;   997.2697;           27   
    1122;   998.1450;           30   
    1123;   999.0203;           27   
    1124;   999.8955;           28   
    1125;  1000.7708;           28   
    1126;  1001.6461;           33   
    1127;  1002.5214;           27   
    1128;  1003.3966;           29   
    1129;  1004.2719;           38   
    1130;  1005.1472;           37   
    1131;  1006.0225;           32   
    1132;  1006.8977;           18   
    1133;  1007.7730;           35   
    1134;  1008.6483;           29   
    1135;  1009.5236;           25   
    1136;  1010.3988;           33   
    1137;  1011.2741;           30   
    1138;  1012.1494;           45   
    1139;  1013.0247;           70   
    1140;  1013.8999;           80   
    1141;  1014.7752;           66   
    1142;  1015.6505;           46   
    1143;  1016.5258;           29   
    1144;  1017.4010;           24   
    1145;  1018.2763;           21   
    1146;  1019.1516;           28   
    1147;  1020.0269;           33   
    1148;  1020.9021;           23   
    1149;  1021.7774;           30   
    1150;  1022.6527;           25   
    1151;  1023.5280;           24   
    1152;  1024.4032;           28   
    1153;  1025.2785;           24   
    1154;  1026.1538;           27   
    1155;  1027.0291;           27   
    1156;  1027.9043;           26   
    1157;  1028.7796;           26   
    1158;  1029.6549;           27   
    1159;  1030.5302;           29   
    1160;  1031.4054;           35   
    1161;  1032.2807;           30   
    1162;  1033.1560;           28   
    1163;  1034.0313;           31   
    1164;  1034.9065;           22   
    1165;  1035.7818;           21   
    1166;  1036.6571;           24   
    1167;  1037.5324;           26   
    1168;  1038.4076;           23   
    1169;  1039.2829;           22   
    1170;  1040.1582;           37   
    1171;  1041.0335;           24   
    1172;  1041.9087;           31   
    1173;  1042.7840;           25   
    1174;  1043.6593;           18   
    1175;  1044.5346;           27   
    1176;  1045.4098;           21   
    1177;  1046.2851;           18   
    1178;  1047.1604;           25   
    1179;  1048.0357;           17   
    1180;  1048.9109;           25   
    1181;  1049.7862;           28   
    1182;  1050.6615;           21   
    1183;  1051.5368;           34   
    1184;  1052.4120;           29   
    1185;  1053.2873;           30   
    1186;  1054.1626;           25   
    1187;  1055.0379;           25   
    1188;  1055.9131;           29   
    1189;  1056.7884;           16   
    1190;  1057.6637;           23   
    1191;  1058.5390;           27   
    1192;  1059.4142;           32   
    1193;  1060.2895;           30   
    1194;  1061.1648;           29   
    1195;  1062.0401;           32   
    1196;  1062.9153;           31   
    1197;  1063.7906;           24   
    1198;  1064.6659;           24   
    1199;  1065.5412;           29   
    1200;  1066.4164;           20   
    1201;  1067.2917;           31   
    1202;  1068.1670;           22   
    1203;  1069.0423;           24   
    1204;  1069.9175;           19   
    1205;  1070.7928;           32   
    1206;  1071.6681;           23   
    1207;  1072.5434;           19   
    1208;  1073.4186;           22   
    1209;  1074.2939;           36   
    1210;  1075.1692;           22   
    1211;  1076.0445;           17   
    1212;  1076.9197;           34   
    1213;  1077.7950;           32   
    1214;  1078.6703;           18   
    1215;  1079.5456;           30   
    1216;  1080.4208;           25   
    1217;  1081.2961;           35   
    1218;  1082.1714;           33   
    1219;  1083.0467;           26   
    1220;  1083.9219;           31   
    1221;  1084.7972;           30   
    1222;  1085.6725;           18   
    1223;  1086.5478;           30   
    1224;  1087.4230;           33   
    1225;  1088.2983;           32   
    1226;  1089.1736;           20   
    1227;  1090.0489;           26   
    1228;  1090.9241;           16   
    1229;  1091.7994;           30   
    1230;  1092.6747;           60   
    1231;  1093.5500;          270   
    1232;  1094.4252;          598   
    1233;  1095.3005;          669   
    1234;  1096.1758;          308   
    1235;  1097.0511;          105   
    1236;  1097.9263;          103   
    1237;  1098.8016;          138   
    1238;  1099.6769;          121   
    1239;  1100.5522;           52   
    1240;  1101.4274;           33   
    1241;  1102.3027;           34   
    1242;  1103.1780;           30   
    1243;  1104.0533;           32   
    1244;  1104.9285;           31   
    1245;  1105.8038;           28   
    1246;  1106.6791;           34   
    1247;  1107.5544;           32   
    1248;  1108.4296;           23   
    1249;  1109.3049;           39   
    1250;  1110.1802;           31   
    1251;  1111.0555;           26   
    1252;  1111.9307;           24   
    1253;  1112.8060;           29   
    1254;  1113.6813;           30   
    1255;  1114.5566;           25   
    1256;  1115.4318;           30   
    1257;  1116.3071;           31   
    1258;  1117.1824;           29   
    1259;  1118.0577;           51   
    1260;  1118.9329;           60   
    1261;  1119.8082;          256   
    1262;  1120.6835;          707   
    1263;  1121.5588;          932   
    1264;  1122.4340;          469   
    1265;  1123.3093;          130   
    1266;  1124.1846;           40   
    1267;  1125.0599;           31   
    1268;  1125.9351;           25   
    1269;  1126.8104;           29   
    1270;  1127.6857;           35   
    1271;  1128.5610;           26   
    1272;  1129.4362;           58   
    1273;  1130.3115;           44   
    1274;  1131.1868;           20   
    1275;  1132.0621;           28   
    1276;  1132.9373;           25   
    1277;  1133.8126;           13   
    1278;  1134.6879;           20   
    1279;  1135.5632;           22   
    1280;  1136.4384;           26   
    1281;  1137.3137;           20   
    1282;  1138.1890;           26   
    1283;  1139.0643;           27   
    1284;  1139.9395;           27   
    1285;  1140.8148;           27   
    1286;  1141.6901;           30   
    1287;  1142.5654;           22   
    1288;  1143.4406;           30   
    1289;  1144.3159;           36   
    1290;  1145.1912;           25   
    1291;  1146.0665;           24   
    1292;  1146.9417;           35   
    1293;  1147.8170;           32   
    1294;  1148.6923;           40   
    1295;  1149.5676;           28   
    1296;  1150.4428;           29   
    1297;  1151.3181;           24   
    1298;  1152.1934;           30   
    1299;  1153.0687;           25   
    1300;  1153.9439;           25   
    1301;  1154.8192;           26   
    1302;  1155.6945;           29   
    1303;  1156.5698;           31   
    1304;  1157.4450;           30   
    1305;  1158.3203;           34   
    1306;  1159.1956;           42   
    1307;  1160.0709;           17   
    1308;  1160.9461;           33   
    1309;  1161.8214;           27   
    1310;  1162.6967;           32   
    1311;  1163.5720;           33   
    1312;  1164.4472;           29   
    1313;  1165.3225;           31   
    1314;  1166.1978;           32   
    1315;  1167.0731;           34   
    1316;  1167.9483;           38   
    1317;  1168.8236;           18   
    1318;  1169.6989;           28   
    1319;  1170.5742;           21   
    1320;  1171.4494;           29   
    1321;  1172.3247;           33   
    1322;  1173.2000;           23   
    1323;  1174.0753;           40   
    1324;  1174.9505;           29   
    1325;  1175.8258;           31   
    1326;  1176.7011;           33   
    1327;  1177.5764;           23   
    1328;  1178.4516;           33   
    1329;  1179.3269;           36   
    1330;  1180.2022;           30   
    1331;  1181.0775;           37   
    1332;  1181.9527;           33   
    1333;  1182.8280;           38   
    1334;  1183.7033;           39   
    1335;  1184.5786;           35   
    1336;  1185.4538;           26   
    1337;  1186.3291;           33   
    1338;  1187.2044;           32   
    1339;  1188.0797;           21   
    1340;  1188.9549;           28   
    1341;  1189.8302;           31   
    1342;  1190.7055;           31   
    1343;  1191.5808;           35   
    1344;  1192.4560;           31   
    1345;  1193.3313;           20   
    1346;  1194.2066;           33   
    1347;  1195.0819;           29   
    1348;  1195.9571;           40   
    1349;  1196.8324;           34   
    1350;  1197.7077;           38   
    1351;  1198.5830;           26   
    1352;  1199.4582;           35   
    1353;  1200.3335;           20   
    1354;  1201.2088;           22   
    1355;  1202.0841;           22   
    1356;  1202.9593;           28   
    1357;  1203.8346;           25   
    1358;  1204.7099;           33   
    1359;  1205.5852;           33   
    1360;  1206.4604;           23   
    1361;  1207.3357;           28   
    1362;  1208.2110;           17   
    1363;  1209.0863;           23   
    1364;  1209.9615;           25   
    1365;  1210.8368;           27   
    1366;  1211.7121;           29   
    1367;  1212.5874;           28   
    1368;  1213.4626;           32   
    1369;  1214.3379;           19   
    1370;  1215.2132;           30   
    1371;  1216.0885;           29   
    1372;  1216.9637;           22   
    1373;  1217.8390;           17   
    1374;  1218.7143;           22   
    1375;  1219.5896;           19   
    1376;  1220.4648;           29   
    1377;  1221.3401;           54   
    1378;  1222.2154;           94   
    1379;  1223.0907;          110   
    1380;  1223.9659;           60   
    1381;  1224.8412;           33   
    1382;  1225.7165;           30   
    1383;  1226.5918;           17   
    1384;  1227.4670;           16   
    1385;  1228.3423;           32   
    1386;  1229.2176;           18   
    1387;  1230.0929;           24   
    1388;  1230.9681;           25   
    1389;  1231.8434;            9   
    1390;  1232.7187;           14   
    1391;  1233.5940;           14   
    1392;  1234.4692;           19   
    1393;  1235.3445;           17   
    1394;  1236.2198;           22   
    1395;  1237.0951;           14   
    1396;  1237.9703;           20   
    1397;  1238.8456;           21   
    1398;  1239.7209;           23   
    1399;  1240.5962;           16   
    1400;  1241.4714;           22   
    1401;  1242.3467;           29   
    1402;  1243.2220;           14   
    1403;  1244.0973;           24   
    1404;  1244.9725;           20   
    1405;  1245.8478;           17   
    1406;  1246.7231;           19   
    1407;  1247.5984;           26   
    1408;  1248.4736;           20   
    1409;  1249.3489;           22   
    1410;  1250.2242;           24   
    1411;  1251.0995;           16   
    1412;  1251.9747;           17   
    1413;  1252.8500;           26   
    1414;  1253.7253;           17   
    1415;  1254.6006;           17   
    1416;  1255.4758;           20   
    1417;  1256.3511;           15   
    1418;  1257.2264;           12   
    1419;  1258.1017;           15   
    1420;  1258.9769;           18   
    1421;  1259.8522;           28   
    1422;  1260.7275;           27   
    1423;  1261.6028;           11   
    1424;  1262.4780;           12   
    1425;  1263.3533;           26   
    1426;  1264.2286;           20   
    1427;  1265.1039;           19   
    1428;  1265.9791;           16   
    1429;  1266.8544;           17   
    1430;  1267.7297;           15   
    1431;  1268.6050;           14   
    1432;  1269.4802;           16   
    1433;  1270.3555;           18   
    1434;  1271.2308;           19   
    1435;  1272.1061;           14   
    1436;  1272.9813;           19   
    1437;  1273.8566;           13   
    1438;  1274.7319;           20   
    1439;  1275.6072;           14   
    1440;  1276.4824;           11   
    1441;  1277.3577;           12   
    1442;  1278.2330;           10   
    1443;  1279.1083;           14   
    1444;  1279.9835;           14   
    1445;  1280.8588;           14   
    1446;  1281.7341;           12   
    1447;  1282.6094;           18   
    1448;  1283.4846;           25   
    1449;  1284.3599;           18   
    1450;  1285.2352;           28   
    1451;  1286.1105;           17   
    1452;  1286.9857;            5   
    1453;  1287.8610;            9   
    1454;  1288.7363;           19   
    1455;  1289.6116;           15   
    1456;  1290.4868;           15   
    1457;  1291.3621;           15   
    1458;  1292.2374;           10   
    1459;  1293.1127;           11   
    1460;  1293.9879;           13   
    1461;  1294.8632;           18   
    1462;  1295.7385;           17   
    1463;  1296.6138;           13   
    1464;  1297.4890;           14   
    1465;  1298.3643;           10   
    1466;  1299.2396;           21   
    1467;  1300.1149;           12   
    1468;  1300.9901;           16   
    1469;  1301.8654;           14   
    1470;  1302.7407;           19   
    1471;  1303.6160;           13   
    1472;  1304.4912;            7   
    1473;  1305.3665;           14   
    1474;  1306.2418;           11   
    1475;  1307.1171;           20   
    1476;  1307.9923;           45   
    1477;  1308.8676;          102   
    1478;  1309.7429;           73   
    1479;  1310.6182;           46   
    1480;  1311.4934;           18   
    1481;  1312.3687;           10   
    1482;  1313.2440;            9   
    1483;  1314.1193;           11   
    1484;  1314.9945;            8   
    1485;  1315.8698;            8   
    1486;  1316.7451;            9   
    1487;  1317.6204;            8   
    1488;  1318.4956;           12   
    1489;  1319.3709;            7   
    1490;  1320.2462;           12   
    1491;  1321.1215;            6   
    1492;  1321.9967;            7   
    1493;  1322.8720;           14   
    1494;  1323.7473;            8   
    1495;  1324.6226;            3   
    1496;  1325.4978;           11   
    1497;  1326.3731;            8   
    1498;  1327.2484;            4   
    1499;  1328.1237;            1   
    1500;  1328.9989;            3   
    1501;  1329.8742;           10   
    1502;  1330.7495;            9   
    1503;  1331.6248;            8   
    1504;  1332.5000;           10   
    1505;  1333.3753;            6   
    1506;  1334.2506;            8   
    1507;  1335.1259;            8   
    1508;  1336.0011;            8   
    1509;  1336.8764;            6   
    1510;  1337.7517;           15   
    1511;  1338.6270;            7   
    1512;  1339.5022;            8   
    1513;  1340.3775;            7   
    1514;  1341.2528;            7   
    1515;  1342.1281;            7   
    1516;  1343.0033;           12   
    1517;  1343.8786;            6   
    1518;  1344.7539;            4   
    1519;  1345.6292;            4   
    1520;  1346.5044;            5   
    1521;  1347.3797;            6   
    1522;  1348.2550;            5   
    1523;  1349.1303;            9   
    1524;  1350.0055;            0   
    1525;  1350.8808;            6   
    1526;  1351.7561;            7   
    1527;  1352.6314;            3   
    1528;  1353.5066;            6   
    1529;  1354.3819;            7   
    1530;  1355.2572;            6   
    1531;  1356.1325;            2   
    1532;  1357.0077;            9   
    1533;  1357.8830;            4   
    1534;  1358.7583;            8   
    1535;  1359.6336;            8   
    1536;  1360.5088;            7   
    1537;  1361.3841;            5   
    1538;  1362.2594;            2   
    1539;  1363.1347;            6   
    1540;  1364.0099;            4   
    1541;  1364.8852;           11   
    1542;  1365.7605;            5   
    1543;  1366.6358;            9   
    1544;  1367.5110;            8   
    1545;  1368.3863;            6   
    1546;  1369.2616;            7   
    1547;  1370.1369;            5   
    1548;  1371.0121;            9   
    1549;  1371.8874;            7   
    1550;  1372.7627;            6   
    1551;  1373.6380;            8   
    1552;  1374.5132;            6   
    1553;  1375.3885;           10   
    1554;  1376.2638;            2   
    1555;  1377.1391;            3   
    1556;  1378.0143;            7   
    1557;  1378.8896;            4   
    1558;  1379.7649;            7   
    1559;  1380.6402;            6   
    1560;  1381.5154;            5   
    1561;  1382.3907;            5   
    1562;  1383.2660;            5   
    1563;  1384.1413;            7   
    1564;  1385.0165;            5   
    1565;  1385.8918;            8   
    1566;  1386.7671;            9   
    1567;  1387.6424;            6   
    1568;  1388.5176;            4   
    1569;  1389.3929;            4   
    1570;  1390.2682;            7   
    1571;  1391.1435;            2   
    1572;  1392.0187;            6   
    1573;  1392.8940;            7   
    1574;  1393.7693;            5   
    1575;  1394.6446;            4   
    1576;  1395.5198;            8   
    1577;  1396.3951;            5   
    1578;  1397.2704;            9   
    1579;  1398.1457;            5   
    1580;  1399.0209;            4   
    1581;  1399.8962;            3   
    1582;  1400.7715;            6   
    1583;  1401.6468;            2   
    1584;  1402.5220;            3   
    1585;  1403.3973;            3   
    1586;  1404.2726;            5   
    1587;  1405.1479;            4   
    1588;  1406.0231;            1   
    1589;  1406.8984;            5   
    1590;  1407.7737;            4   
    1591;  1408.6490;            6   
    1592;  1409.5242;            4   
    1593;  1410.3995;            6   
    1594;  1411.2748;            4   
    1595;  1412.1501;            7   
    1596;  1413.0253;            3   
    1597;  1413.9006;            3   
    1598;  1414.7759;            9   
    1599;  1415.6512;           23   
    1600;  1416.5264;          103   
    1601;  1417.4017;          395   
    1602;  1418.2770;          881   
    1603;  1419.1523;          943   
    1604;  1420.0275;          514   
    1605;  1420.9028;          120   
    1606;  1421.7781;           30   
    1607;  1422.6534;            4   
    1608;  1423.5286;            5   
    1609;  1424.4039;            2   
    1610;  1425.2792;            4   
    1611;  1426.1545;            3   
    1612;  1427.0297;            3   
    1613;  1427.9050;            2   
    1614;  1428.7803;            2   
    1615;  1429.6556;            5   
    1616;  1430.5308;            8   
    1617;  1431.4061;            6   
    1618;  1432.2814;            2   
    1619;  1433.1567;            2   
    1620;  1434.0319;            3   
    1621;  1434.9072;            4   
    1622;  1435.7825;            4   
    1623;  1436.6578;            4   
    1624;  1437.5330;            3   
    1625;  1438.4083;            1   
    1626;  1439.2836;            4   
    1627;  1440.1589;            7   
    1628;  1441.0341;            3   
    1629;  1441.9094;            4   
    1630;  1442.7847;            4   
    1631;  1443.6600;            5   
    1632;  1444.5352;            2   
    1633;  1445.4105;            1   
    1634;  1446.2858;            7   
    1635;  1447.1611;            3   
    1636;  1448.0363;            3   
    1637;  1448.9116;            3   
    1638;  1449.7869;            6   
    1639;  1450.6622;            3   
    1640;  1451.5374;            1   
    1641;  1452.4127;            3   
    1642;  1453.2880;            3   
    1643;  1454.1633;            3   
    1644;  1455.0385;            3   
    1645;  1455.9138;            1   
    1646;  1456.7891;            8   
    1647;  1457.6644;            2   
    1648;  1458.5396;            2   
    1649;  1459.4149;            5   
    1650;  1460.2902;            2   
    1651;  1461.1655;            2   
    1652;  1462.0407;            3   
    1653;  1462.9160;            4   
    1654;  1463.7913;            5   
    1655;  1464.6666;            2   
    1656;  1465.5418;            0   
    1657;  1466.4171;            3   
    1658;  1467.2924;           20   
    1659;  1468.1677;           28   
    1660;  1469.0429;           33   
    1661;  1469.9182;           60   
    1662;  1470.7935;          163   
    1663;  1471.6688;          277   
    1664;  1472.5440;          213   
    1665;  1473.4193;           93   
    1666;  1474.2946;           16   
    1667;  1475.1699;            4   
    1668;  1476.0451;            4   
    1669;  1476.9204;            1   
    1670;  1477.7957;            4   
    1671;  1478.6710;            3   
    1672;  1479.5462;            5   
    1673;  1480.4215;            1   
    1674;  1481.2968;            5   
    1675;  1482.1721;            2   
    1676;  1483.0473;            3   
    1677;  1483.9226;            2   
    1678;  1484.7979;            2   
    1679;  1485.6732;            1   
    1680;  1486.5484;            0   
    1681;  1487.4237;            0   
    1682;  1488.2990;            1   
    1683;  1489.1743;            2   
    1684;  1490.0495;            3   
    1685;  1490.9248;            2   
    1686;  1491.8001;            0   
    1687;  1492.6754;            1   
    1688;  1493.5506;            2   
    1689;  1494.4259;            3   
    1690;  1495.3012;            1   
    1691;  1496.1765;            3   
    1692;  1497.0517;            1   
    1693;  1497.9270;            0   
    1694;  1498.8023;            4   
    1695;  1499.6776;            2   
    1696;  1500.5528;            4   
    1697;  1501.4281;            5   
    1698;  1502.3034;            4   
    1699;  1503.1787;            0   
    1700;  1504.0539;            1   
    1701;  1504.9292;            2   
    1702;  1505.8045;            1   
    1703;  1506.6798;            2   
    1704;  1507.5550;            3   
    1705;  1508.4303;            2   
    1706;  1509.3056;            4   
    1707;  1510.1809;            2   
    1708;  1511.0561;            1   
    1709;  1511.9314;            2   
    1710;  1512.8067;            3   
    1711;  1513.6820;            6   
    1712;  1514.5572;            1   
    1713;  1515.4325;            4   
    1714;  1516.3078;            1   
    1715;  1517.1831;            3   
    1716;  1518.0583;            2   
    1717;  1518.9336;            2   
    1718;  1519.8089;            2   
    1719;  1520.6842;            5   
    1720;  1521.5594;            3   
    1721;  1522.4347;            3   
    1722;  1523.3100;            0   
    1723;  1524.1853;            3   
    1724;  1525.0605;            2   
    1725;  1525.9358;            0   
    1726;  1526.8111;            2   
    1727;  1527.6864;            3   
    1728;  1528.5616;            0   
    1729;  1529.4369;            2   
    1730;  1530.3122;            2   
    1731;  1531.1875;            2   
    1732;  1532.0627;            2   
    1733;  1532.9380;            1   
    1734;  1533.8133;            3   
    1735;  1534.6886;            3   
    1736;  1535.5638;            3   
    1737;  1536.4391;            4   
    1738;  1537.3144;            5   
    1739;  1538.1897;            8   
    1740;  1539.0649;           10   
    1741;  1539.9402;            8   
    1742;  1540.8155;           14   
    1743;  1541.6908;            1   
    1744;  1542.5660;            2   
    1745;  1543.4413;            1   
    1746;  1544.3166;            0   
    1747;  1545.1919;            2   
    1748;  1546.0671;            1   
    1749;  1546.9424;            1   
    1750;  1547.8177;            2   
    1751;  1548.6930;            2   
    1752;  1549.5682;            3   
    1753;  1550.4435;            2   
    1754;  1551.3188;            2   
    1755;  1552.1941;            0   
    1756;  1553.0693;            0   
    1757;  1553.9446;            3   
    1758;  1554.8199;            2   
    1759;  1555.6952;            2   
    1760;  1556.5704;            3   
    1761;  1557.4457;            2   
    1762;  1558.3210;            1   
    1763;  1559.1963;            1   
    1764;  1560.0715;            4   
    1765;  1560.9468;            1   
    1766;  1561.8221;            3   
    1767;  1562.6974;            1   
    1768;  1563.5726;            3   
    1769;  1564.4479;            2   
    1770;  1565.3232;            1   
    1771;  1566.1985;            2   
    1772;  1567.0737;            1   
    1773;  1567.9490;            0   
    1774;  1568.8243;            1   
    1775;  1569.6996;            4   
    1776;  1570.5748;            3   
    1777;  1571.4501;            0   
    1778;  1572.3254;            2   
    1779;  1573.2007;            0   
    1780;  1574.0759;            4   
    1781;  1574.9512;            1   
    1782;  1575.8265;            2   
    1783;  1576.7018;            0   
    1784;  1577.5770;            2   
    1785;  1578.4523;            1   
    1786;  1579.3276;            1   
    1787;  1580.2029;            1   
    1788;  1581.0781;            1   
    1789;  1581.9534;            1   
    1790;  1582.8287;            1   
    1791;  1583.7040;            1   
    1792;  1584.5792;            3   
    1793;  1585.4545;            1   
    1794;  1586.3298;            1   
    1795;  1587.2051;            0   
    1796;  1588.0803;            2   
    1797;  1588.9556;            3   
    1798;  1589.8309;            5   
    1799;  1590.7062;            0   
    1800;  1591.5814;            3   
    1801;  1592.4567;            0   
    1802;  1593.3320;            4   
    1803;  1594.2073;            3   
    1804;  1595.0825;            1   
    1805;  1595.9578;            2   
    1806;  1596.8331;            2   
    1807;  1597.7084;            0   
    1808;  1598.5836;            7   
    1809;  1599.4589;            3   
    1810;  1600.3342;            4   
    1811;  1601.2095;            3   
    1812;  1602.0847;            2   
    1813;  1602.9600;            5   
    1814;  1603.8353;            4   
    1815;  1604.7106;            1   
    1816;  1605.5858;            3   
    1817;  1606.4611;            0   
    1818;  1607.3364;            3   
    1819;  1608.2117;            1   
    1820;  1609.0869;            1   
    1821;  1609.9622;            1   
    1822;  1610.8375;            4   
    1823;  1611.7128;            2   
    1824;  1612.5880;            0   
    1825;  1613.4633;            0   
    1826;  1614.3386;            4   
    1827;  1615.2139;            3   
    1828;  1616.0891;            0   
    1829;  1616.9644;            1   
    1830;  1617.8397;            1   
    1831;  1618.7150;            2   
    1832;  1619.5902;            0   
    1833;  1620.4655;            0   
    1834;  1621.3408;            2   
    1835;  1622.2161;            0   
    1836;  1623.0913;            0   
    1837;  1623.9666;            0   
    1838;  1624.8419;            0   
    1839;  1625.7172;            0   
    1840;  1626.5924;            0   
    1841;  1627.4677;            0   
    1842;  1628.3430;            0   
    1843;  1629.2183;            3   
    1844;  1630.0935;            4   
    1845;  1630.9688;            1   
    1846;  1631.8441;            5   
    1847;  1632.7194;            1   
    1848;  1633.5946;            4   
    1849;  1634.4699;            0   
    1850;  1635.3452;            0   
    1851;  1636.2205;            4   
    1852;  1637.0957;            2   
    1853;  1637.9710;            1   
    1854;  1638.8463;            1   
    1855;  1639.7216;            1   
    1856;  1640.5968;            3   
    1857;  1641.4721;            0   
    1858;  1642.3474;            2   
    1859;  1643.2227;            2   
    1860;  1644.0979;            2   
    1861;  1644.9732;            1   
    1862;  1645.8485;            1   
    1863;  1646.7238;            1   
    1864;  1647.5990;            0   
    1865;  1648.4743;            0   
    1866;  1649.3496;            3   
    1867;  1650.2249;            1   
    1868;  1651.1001;            1   
    1869;  1651.9754;            1   
    1870;  1652.8507;            1   
    1871;  1653.7260;            1   
    1872;  1654.6012;            0   
    1873;  1655.4765;            0   
    1874;  1656.3518;            1   
    1875;  1657.2271;            1   
    1876;  1658.1023;            2   
    1877;  1658.9776;            2   
    1878;  1659.8529;            2   
    1879;  1660.7282;            0   
    1880;  1661.6034;            0   
    1881;  1662.4787;            1   
    1882;  1663.3540;            0   
    1883;  1664.2293;            1   
    1884;  1665.1045;            2   
    1885;  1665.9798;            0   
    1886;  1666.8551;            4   
    1887;  1667.7304;            2   
    1888;  1668.6056;            1   
    1889;  1669.4809;            0   
    1890;  1670.3562;            1   
    1891;  1671.2315;            2   
    1892;  1672.1067;            0   
    1893;  1672.9820;            0   
    1894;  1673.8573;            5   
    1895;  1674.7326;            1   
    1896;  1675.6078;            3   
    1897;  1676.4831;            1   
    1898;  1677.3584;            1   
    1899;  1678.2337;            1   
    1900;  1679.1089;            0   
    1901;  1679.9842;            2   
    1902;  1680.8595;            0   
    1903;  1681.7348;            0   
    1904;  1682.6100;            0   
    1905;  1683.4853;            1   
    1906;  1684.3606;            0   
    1907;  1685.2359;            2   
    1908;  1686.1111;            1   
    1909;  1686.9864;            2   
    1910;  1687.8617;            0   
    1911;  1688.7370;            2   
    1912;  1689.6122;            0   
    1913;  1690.4875;            0   
    1914;  1691.3628;            0   
    1915;  1692.2381;            2   
    1916;  1693.1133;            2   
    1917;  1693.9886;            1   
    1918;  1694.8639;            3   
    1919;  1695.7392;            0   
    1920;  1696.6144;            0   
    1921;  1697.4897;            1   
    1922;  1698.3650;            0   
    1923;  1699.2403;            1   
    1924;  1700.1155;            1   
    1925;  1700.9908;            2   
    1926;  1701.8661;            0   
    1927;  1702.7414;            1   
    1928;  1703.6166;            2   
    1929;  1704.4919;            1   
    1930;  1705.3672;            3   
    1931;  1706.2425;            1   
    1932;  1707.1177;            2   
    1933;  1707.9930;            2   
    1934;  1708.8683;            1   
    1935;  1709.7436;            1   
    1936;  1710.6188;            1   
    1937;  1711.4941;            1   
    1938;  1712.3694;            1   
    1939;  1713.2447;            1   
    1940;  1714.1199;            1   
    1941;  1714.9952;            2   
    1942;  1715.8705;            0   
    1943;  1716.7458;            1   
    1944;  1717.6210;            2   
    1945;  1718.4963;            2   
    1946;  1719.3716;            0   
    1947;  1720.2469;            2   
    1948;  1721.1221;            2   
    1949;  1721.9974;            0   
    1950;  1722.8727;            1   
    1951;  1723.7480;            1   
    1952;  1724.6232;            3   
    1953;  1725.4985;            0   
    1954;  1726.3738;            2   
    1955;  1727.2491;            0   
    1956;  1728.1243;            0   
    1957;  1728.9996;            1   
    1958;  1729.8749;            1   
    1959;  1730.7502;            1   
    1960;  1731.6254;            1   
    1961;  1732.5007;            1   
    1962;  1733.3760;            0   
    1963;  1734.2513;            1   
    1964;  1735.1265;            0   
    1965;  1736.0018;            3   
    1966;  1736.8771;            3   
    1967;  1737.7524;            0   
    1968;  1738.6276;            0   
    1969;  1739.5029;            2   
    1970;  1740.3782;            1   
    1971;  1741.2535;            1   
    1972;  1742.1287;            3   
    1973;  1743.0040;            6   
    1974;  1743.8793;            3   
    1975;  1744.7546;            1   
    1976;  1745.6298;            2   
    1977;  1746.5051;            0   
    1978;  1747.3804;            1   
    1979;  1748.2557;            1   
    1980;  1749.1309;            0   
    1981;  1750.0062;            0   
    1982;  1750.8815;            0   
    1983;  1751.7568;            0   
    1984;  1752.6320;            0   
    1985;  1753.5073;            0   
    1986;  1754.3826;            0   
    1987;  1755.2579;            0   
    1988;  1756.1331;            0   
    1989;  1757.0084;            0   
    1990;  1757.8837;            0   
    1991;  1758.7590;            0   
    1992;  1759.6342;            0   
    1993;  1760.5095;            0   
    1994;  1761.3848;            0   
    1995;  1762.2601;            0   
    1996;  1763.1353;            0   
    1997;  1764.0106;            0   
    1998;  1764.8859;            0   
    1999;  1765.7612;            0   
    2000;  1766.6364;            0   
    2001;  1767.5117;            0   
    2002;  1768.3870;            0   
    2003;  1769.2623;            0   
    2004;  1770.1375;            0   
    2005;  1771.0128;            0   
    2006;  1771.8881;            0   
    2007;  1772.7634;            0   
    2008;  1773.6386;            0   
    2009;  1774.5139;            0   
    2010;  1775.3892;            0   
    2011;  1776.2645;            0   
    2012;  1777.1397;            0   
    2013;  1778.0150;            0   
    2014;  1778.8903;            0   
    2015;  1779.7656;            0   
    2016;  1780.6408;            0   
    2017;  1781.5161;            0   
    2018;  1782.3914;            0   
    2019;  1783.2667;            0   
    2020;  1784.1419;            0   
    2021;  1785.0172;            0   
    2022;  1785.8925;            0   
    2023;  1786.7678;            0   
    2024;  1787.6430;            0   
    2025;  1788.5183;            0   
    2026;  1789.3936;            0   
    2027;  1790.2689;            0   
    2028;  1791.1441;            0   
    2029;  1792.0194;            0   
    2030;  1792.8947;            0   
    2031;  1793.7700;            0   
    2032;  1794.6452;            0   
    2033;  1795.5205;            0   
    2034;  1796.3958;            0   
    2035;  1797.2711;            0   
    2036;  1798.1463;            0   
    2037;  1799.0216;            0   
    2038;  1799.8969;            0   
    2039;  1800.7722;            0   
    2040;  1801.6474;            0   
    2041;  1802.5227;            0   
    2042;  1803.3980;            0   
    2043;  1804.2733;            0   
    2044;  1805.1485;            0   
    2045;  1806.0238;            0   
    2046;  1806.8991;            0   
    2047;  1807.7744;            0   
    2048;  1808.6496;            0   
ROI Nummer; Anfangskanal; Endkanal; Anfangsenergie keV ; Endenergie keV; Nettoimpulse; Bruttoimpulse; Untergrundimpulse
In den Daten wurden keine Linien gefunden
ROI Nummer; prozentualer Fehler der Lage; Lage keV; FWHM keV; FWTM keV; FWTM/FWHM Verhltnis; H/L Verhltnis
No Peak records found in data.
Name; Energie keV; Flags; Aktivitt uCi/Unit; Aktivittsfehler %; NWG uCi/Unit; MDA Error %
Es wurden keine Nuklidergebnisse gefunden.
Name; Erwartete Endergie keV; Gemessene Energie keV; Differenz von erwarteter keV; FWHM; Flags; Aktivitt uCi/Unit; Aktivittsfehler %
Es wurden keine Nuklidergebnisse gefunden.
