Kanal;   Energie(keV); Impulse
       1;    16.9617;          442   
       2;    17.8370;          513   
       3;    18.7122;          428   
       4;    19.5875;          437   
       5;    20.4628;          413   
       6;    21.3381;          374   
       7;    22.2133;          391   
       8;    23.0886;          375   
       9;    23.9639;          343   
      10;    24.8392;          375   
      11;    25.7144;          355   
      12;    26.5897;          318   
      13;    27.4650;          353   
      14;    28.3403;          341   
      15;    29.2155;          291   
      16;    30.0908;          309   
      17;    30.9661;          313   
      18;    31.8414;          324   
      19;    32.7166;          318   
      20;    33.5919;          322   
      21;    34.4672;          306   
      22;    35.3425;          307   
      23;    36.2177;          312   
      24;    37.0930;          315   
      25;    37.9683;          304   
      26;    38.8436;          319   
      27;    39.7188;          289   
      28;    40.5941;          326   
      29;    41.4694;          306   
      30;    42.3447;          315   
      31;    43.2199;          302   
      32;    44.0952;          275   
      33;    44.9705;          292   
      34;    45.8458;          265   
      35;    46.7210;          270   
      36;    47.5963;          285   
      37;    48.4716;          335   
      38;    49.3469;          306   
      39;    50.2221;          257   
      40;    51.0974;          246   
      41;    51.9727;          259   
      42;    52.8480;          278   
      43;    53.7232;          260   
      44;    54.5985;          247   
      45;    55.4738;          274   
      46;    56.3491;          262   
      47;    57.2243;          252   
      48;    58.0996;          261   
      49;    58.9749;          249   
      50;    59.8502;          254   
      51;    60.7254;          272   
      52;    61.6007;          282   
      53;    62.4760;          272   
      54;    63.3513;          276   
      55;    64.2265;          303   
      56;    65.1018;          279   
      57;    65.9771;          276   
      58;    66.8524;          323   
      59;    67.7276;          349   
      60;    68.6029;          305   
      61;    69.4782;          313   
      62;    70.3535;          307   
      63;    71.2287;          347   
      64;    72.1040;          354   
      65;    72.9793;          357   
      66;    73.8546;          408   
      67;    74.7298;          519   
      68;    75.6051;          759   
      69;    76.4804;          640   
      70;    77.3557;         1033   
      71;    78.2309;          951   
      72;    79.1062;          453   
      73;    79.9815;          390   
      74;    80.8568;          375   
      75;    81.7320;          410   
      76;    82.6073;          400   
      77;    83.4826;          425   
      78;    84.3579;          366   
      79;    85.2331;          429   
      80;    86.1084;          460   
      81;    86.9837;          698   
      82;    87.8590;          805   
      83;    88.7342;          626   
      84;    89.6095;          576   
      85;    90.4848;          558   
      86;    91.3601;          495   
      87;    92.2353;          475   
      88;    93.1106;          396   
      89;    93.9859;          432   
      90;    94.8612;          489   
      91;    95.7364;          469   
      92;    96.6117;          483   
      93;    97.4870;          448   
      94;    98.3623;          487   
      95;    99.2375;          474   
      96;   100.1128;          467   
      97;   100.9881;          440   
      98;   101.8634;          444   
      99;   102.7386;          440   
     100;   103.6139;          472   
     101;   104.4892;          464   
     102;   105.3645;          482   
     103;   106.2397;          525   
     104;   107.1150;          498   
     105;   107.9903;          507   
     106;   108.8656;          499   
     107;   109.7408;          471   
     108;   110.6161;          495   
     109;   111.4914;          474   
     110;   112.3667;          510   
     111;   113.2419;          533   
     112;   114.1172;          503   
     113;   114.9925;          497   
     114;   115.8678;          486   
     115;   116.7430;          549   
     116;   117.6183;          513   
     117;   118.4936;          504   
     118;   119.3689;          551   
     119;   120.2441;          503   
     120;   121.1194;          522   
     121;   121.9947;          547   
     122;   122.8700;          610   
     123;   123.7452;         1674   
     124;   124.6205;         4853   
     125;   125.4958;         3746   
     126;   126.3711;          915   
     127;   127.2463;          432   
     128;   128.1216;          396   
     129;   128.9969;          422   
     130;   129.8722;          422   
     131;   130.7474;          441   
     132;   131.6227;          443   
     133;   132.4980;          388   
     134;   133.3733;          388   
     135;   134.2485;          414   
     136;   135.1238;          377   
     137;   135.9991;          438   
     138;   136.8744;          420   
     139;   137.7496;          386   
     140;   138.6249;          423   
     141;   139.5002;          396   
     142;   140.3755;          440   
     143;   141.2507;          410   
     144;   142.1260;          418   
     145;   143.0013;          360   
     146;   143.8766;          383   
     147;   144.7518;          412   
     148;   145.6271;          405   
     149;   146.5024;          431   
     150;   147.3777;          386   
     151;   148.2529;          396   
     152;   149.1282;          430   
     153;   150.0035;          407   
     154;   150.8788;          383   
     155;   151.7540;          390   
     156;   152.6293;          445   
     157;   153.5046;          415   
     158;   154.3799;          379   
     159;   155.2551;          388   
     160;   156.1304;          408   
     161;   157.0057;          427   
     162;   157.8810;          386   
     163;   158.7562;          404   
     164;   159.6315;          382   
     165;   160.5068;          383   
     166;   161.3821;          390   
     167;   162.2573;          384   
     168;   163.1326;          384   
     169;   164.0079;          388   
     170;   164.8832;          371   
     171;   165.7584;          382   
     172;   166.6337;          373   
     173;   167.5090;          355   
     174;   168.3843;          353   
     175;   169.2595;          328   
     176;   170.1348;          331   
     177;   171.0101;          351   
     178;   171.8854;          357   
     179;   172.7606;          363   
     180;   173.6359;          345   
     181;   174.5112;          364   
     182;   175.3865;          338   
     183;   176.2617;          388   
     184;   177.1370;          355   
     185;   178.0123;          321   
     186;   178.8876;          318   
     187;   179.7628;          358   
     188;   180.6381;          376   
     189;   181.5134;          368   
     190;   182.3887;          326   
     191;   183.2639;          359   
     192;   184.1392;          335   
     193;   185.0145;          348   
     194;   185.8898;          304   
     195;   186.7650;          361   
     196;   187.6403;          324   
     197;   188.5156;          371   
     198;   189.3909;          328   
     199;   190.2661;          320   
     200;   191.1414;          314   
     201;   192.0167;          310   
     202;   192.8920;          323   
     203;   193.7672;          336   
     204;   194.6425;          319   
     205;   195.5178;          324   
     206;   196.3931;          318   
     207;   197.2683;          329   
     208;   198.1436;          309   
     209;   199.0189;          321   
     210;   199.8942;          320   
     211;   200.7694;          313   
     212;   201.6447;          304   
     213;   202.5200;          272   
     214;   203.3953;          294   
     215;   204.2705;          292   
     216;   205.1458;          310   
     217;   206.0211;          295   
     218;   206.8964;          349   
     219;   207.7716;          302   
     220;   208.6469;          302   
     221;   209.5222;          302   
     222;   210.3975;          300   
     223;   211.2727;          282   
     224;   212.1480;          310   
     225;   213.0233;          302   
     226;   213.8986;          311   
     227;   214.7738;          259   
     228;   215.6491;          293   
     229;   216.5244;          283   
     230;   217.3997;          296   
     231;   218.2749;          283   
     232;   219.1502;          285   
     233;   220.0255;          263   
     234;   220.9008;          279   
     235;   221.7760;          260   
     236;   222.6513;          294   
     237;   223.5266;          279   
     238;   224.4019;          281   
     239;   225.2771;          291   
     240;   226.1524;          246   
     241;   227.0277;          267   
     242;   227.9030;          295   
     243;   228.7782;          239   
     244;   229.6535;          255   
     245;   230.5288;          244   
     246;   231.4041;          231   
     247;   232.2793;          259   
     248;   233.1546;          258   
     249;   234.0299;          238   
     250;   234.9052;          228   
     251;   235.7804;          220   
     252;   236.6557;          243   
     253;   237.5310;          266   
     254;   238.4063;          237   
     255;   239.2815;          231   
     256;   240.1568;          246   
     257;   241.0321;          241   
     258;   241.9074;          286   
     259;   242.7826;          362   
     260;   243.6579;          274   
     261;   244.5332;          267   
     262;   245.4085;          235   
     263;   246.2837;          267   
     264;   247.1590;          316   
     265;   248.0343;          928   
     266;   248.9096;         1318   
     267;   249.7848;          612   
     268;   250.6601;          244   
     269;   251.5354;          247   
     270;   252.4107;          226   
     271;   253.2859;          200   
     272;   254.1612;          197   
     273;   255.0365;          168   
     274;   255.9118;          254   
     275;   256.7870;          219   
     276;   257.6623;          184   
     277;   258.5376;          210   
     278;   259.4129;          190   
     279;   260.2881;          192   
     280;   261.1634;          174   
     281;   262.0387;          225   
     282;   262.9140;          212   
     283;   263.7892;          194   
     284;   264.6645;          183   
     285;   265.5398;          200   
     286;   266.4151;          197   
     287;   267.2903;          206   
     288;   268.1656;          178   
     289;   269.0409;          178   
     290;   269.9162;          211   
     291;   270.7914;          177   
     292;   271.6667;          176   
     293;   272.5420;          195   
     294;   273.4173;          190   
     295;   274.2925;          177   
     296;   275.1678;          199   
     297;   276.0431;          226   
     298;   276.9184;          158   
     299;   277.7936;          196   
     300;   278.6689;          222   
     301;   279.5442;          170   
     302;   280.4195;          167   
     303;   281.2947;          157   
     304;   282.1700;          181   
     305;   283.0453;          185   
     306;   283.9206;          176   
     307;   284.7958;          188   
     308;   285.6711;          144   
     309;   286.5464;          178   
     310;   287.4217;          170   
     311;   288.2969;          171   
     312;   289.1722;          174   
     313;   290.0475;          158   
     314;   290.9228;          179   
     315;   291.7980;          165   
     316;   292.6733;          163   
     317;   293.5486;          136   
     318;   294.4239;          159   
     319;   295.2991;          144   
     320;   296.1744;          133   
     321;   297.0497;          157   
     322;   297.9250;          152   
     323;   298.8002;          192   
     324;   299.6755;          256   
     325;   300.5508;          232   
     326;   301.4261;          179   
     327;   302.3013;          130   
     328;   303.1766;          176   
     329;   304.0519;          144   
     330;   304.9272;          175   
     331;   305.8024;          168   
     332;   306.6777;          142   
     333;   307.5530;          139   
     334;   308.4283;          123   
     335;   309.3035;          167   
     336;   310.1788;          140   
     337;   311.0541;          158   
     338;   311.9294;          150   
     339;   312.8046;          157   
     340;   313.6799;          154   
     341;   314.5552;          150   
     342;   315.4305;          139   
     343;   316.3057;          153   
     344;   317.1810;          150   
     345;   318.0563;          140   
     346;   318.9316;          160   
     347;   319.8068;          143   
     348;   320.6821;          136   
     349;   321.5574;          139   
     350;   322.4327;          132   
     351;   323.3079;          145   
     352;   324.1832;          127   
     353;   325.0585;          152   
     354;   325.9338;          132   
     355;   326.8090;          130   
     356;   327.6843;          121   
     357;   328.5596;          156   
     358;   329.4349;          142   
     359;   330.3101;          161   
     360;   331.1854;          136   
     361;   332.0607;          113   
     362;   332.9360;          154   
     363;   333.8112;          147   
     364;   334.6865;          139   
     365;   335.5618;          140   
     366;   336.4371;          149   
     367;   337.3123;          110   
     368;   338.1876;          114   
     369;   339.0629;          137   
     370;   339.9382;          132   
     371;   340.8134;          140   
     372;   341.6887;          145   
     373;   342.5640;          149   
     374;   343.4393;          146   
     375;   344.3145;          147   
     376;   345.1898;          154   
     377;   346.0651;          107   
     378;   346.9404;          177   
     379;   347.8156;          807   
     380;   348.6909;         2874   
     381;   349.5662;         2616   
     382;   350.4415;          748   
     383;   351.3167;          156   
     384;   352.1920;          109   
     385;   353.0673;           97   
     386;   353.9426;          106   
     387;   354.8178;          122   
     388;   355.6931;          118   
     389;   356.5684;          194   
     390;   357.4437;          155   
     391;   358.3189;           97   
     392;   359.1942;          120   
     393;   360.0695;           93   
     394;   360.9448;           99   
     395;   361.8200;           99   
     396;   362.6953;          108   
     397;   363.5706;          109   
     398;   364.4459;           87   
     399;   365.3211;          108   
     400;   366.1964;          130   
     401;   367.0717;          101   
     402;   367.9470;          100   
     403;   368.8222;           95   
     404;   369.6975;          102   
     405;   370.5728;          104   
     406;   371.4481;          129   
     407;   372.3233;          167   
     408;   373.1986;          168   
     409;   374.0739;          140   
     410;   374.9492;          104   
     411;   375.8244;          121   
     412;   376.6997;          100   
     413;   377.5750;          107   
     414;   378.4503;           87   
     415;   379.3255;           95   
     416;   380.2008;          123   
     417;   381.0761;           88   
     418;   381.9514;          111   
     419;   382.8266;          113   
     420;   383.7019;           95   
     421;   384.5772;           97   
     422;   385.4525;           95   
     423;   386.3277;          106   
     424;   387.2030;          111   
     425;   388.0783;           88   
     426;   388.9536;           94   
     427;   389.8288;           85   
     428;   390.7041;          106   
     429;   391.5794;          108   
     430;   392.4547;           78   
     431;   393.3299;          100   
     432;   394.2052;          101   
     433;   395.0805;           87   
     434;   395.9558;           93   
     435;   396.8310;          107   
     436;   397.7063;           92   
     437;   398.5816;           94   
     438;   399.4569;           75   
     439;   400.3321;           88   
     440;   401.2074;           93   
     441;   402.0827;          102   
     442;   402.9580;           90   
     443;   403.8332;          104   
     444;   404.7085;           78   
     445;   405.5838;           96   
     446;   406.4591;           90   
     447;   407.3343;           96   
     448;   408.2096;           97   
     449;   409.0849;           87   
     450;   409.9602;           82   
     451;   410.8354;           94   
     452;   411.7107;           99   
     453;   412.5860;           83   
     454;   413.4613;           95   
     455;   414.3365;          103   
     456;   415.2118;          148   
     457;   416.0871;          288   
     458;   416.9624;          242   
     459;   417.8376;          165   
     460;   418.7129;           70   
     461;   419.5882;           90   
     462;   420.4635;          102   
     463;   421.3387;          109   
     464;   422.2140;           90   
     465;   423.0893;           78   
     466;   423.9646;           84   
     467;   424.8398;           62   
     468;   425.7151;           78   
     469;   426.5904;          109   
     470;   427.4657;           99   
     471;   428.3409;           82   
     472;   429.2162;           91   
     473;   430.0915;           81   
     474;   430.9668;           86   
     475;   431.8420;          101   
     476;   432.7173;           82   
     477;   433.5926;           85   
     478;   434.4679;           80   
     479;   435.3431;           82   
     480;   436.2184;           93   
     481;   437.0937;           58   
     482;   437.9690;          100   
     483;   438.8442;           89   
     484;   439.7195;          105   
     485;   440.5948;           80   
     486;   441.4701;           96   
     487;   442.3453;           71   
     488;   443.2206;           87   
     489;   444.0959;           88   
     490;   444.9712;           93   
     491;   445.8464;           81   
     492;   446.7217;           62   
     493;   447.5970;           94   
     494;   448.4723;          180   
     495;   449.3475;          359   
     496;   450.2228;          279   
     497;   451.0981;          125   
     498;   451.9734;           74   
     499;   452.8486;           67   
     500;   453.7239;           80   
     501;   454.5992;           55   
     502;   455.4745;           73   
     503;   456.3497;           75   
     504;   457.2250;           78   
     505;   458.1003;           84   
     506;   458.9756;           78   
     507;   459.8508;           89   
     508;   460.7261;           70   
     509;   461.6014;           76   
     510;   462.4767;           63   
     511;   463.3519;           78   
     512;   464.2272;           60   
     513;   465.1025;           72   
     514;   465.9778;           81   
     515;   466.8530;           79   
     516;   467.7283;           90   
     517;   468.6036;           88   
     518;   469.4789;           89   
     519;   470.3541;           77   
     520;   471.2294;           73   
     521;   472.1047;           79   
     522;   472.9800;           61   
     523;   473.8552;           71   
     524;   474.7305;           72   
     525;   475.6058;           76   
     526;   476.4811;           86   
     527;   477.3563;           75   
     528;   478.2316;           56   
     529;   479.1069;           76   
     530;   479.9822;           77   
     531;   480.8574;           72   
     532;   481.7327;           65   
     533;   482.6080;           64   
     534;   483.4833;           59   
     535;   484.3585;           82   
     536;   485.2338;           79   
     537;   486.1091;           57   
     538;   486.9844;           69   
     539;   487.8596;          104   
     540;   488.7349;           74   
     541;   489.6102;           83   
     542;   490.4855;           58   
     543;   491.3607;           67   
     544;   492.2360;           67   
     545;   493.1113;           69   
     546;   493.9866;          113   
     547;   494.8618;          110   
     548;   495.7371;           70   
     549;   496.6124;           69   
     550;   497.4877;           87   
     551;   498.3629;           67   
     552;   499.2382;           72   
     553;   500.1135;           75   
     554;   500.9888;           76   
     555;   501.8640;           69   
     556;   502.7393;           66   
     557;   503.6146;           85   
     558;   504.4899;           65   
     559;   505.3651;           64   
     560;   506.2404;           81   
     561;   507.1157;           70   
     562;   507.9910;           76   
     563;   508.8662;           72   
     564;   509.7415;           92   
     565;   510.6168;           77   
     566;   511.4921;           76   
     567;   512.3673;           55   
     568;   513.2426;           59   
     569;   514.1179;           78   
     570;   514.9932;           73   
     571;   515.8684;          115   
     572;   516.7437;          121   
     573;   517.6190;          110   
     574;   518.4943;           99   
     575;   519.3695;           80   
     576;   520.2448;           83   
     577;   521.1201;           71   
     578;   521.9954;           78   
     579;   522.8706;           53   
     580;   523.7459;           79   
     581;   524.6212;           85   
     582;   525.4965;           74   
     583;   526.3717;           77   
     584;   527.2470;           58   
     585;   528.1223;           64   
     586;   528.9976;           61   
     587;   529.8728;           61   
     588;   530.7481;           66   
     589;   531.6234;           69   
     590;   532.4987;           74   
     591;   533.3739;           72   
     592;   534.2492;           74   
     593;   535.1245;           66   
     594;   535.9998;           61   
     595;   536.8750;           69   
     596;   537.7503;           70   
     597;   538.6256;           66   
     598;   539.5009;           65   
     599;   540.3761;           73   
     600;   541.2514;           56   
     601;   542.1267;           64   
     602;   543.0020;           74   
     603;   543.8772;           82   
     604;   544.7525;           67   
     605;   545.6278;           49   
     606;   546.5031;           60   
     607;   547.3783;           63   
     608;   548.2536;           67   
     609;   549.1289;           75   
     610;   550.0042;           62   
     611;   550.8794;           59   
     612;   551.7547;           61   
     613;   552.6300;           62   
     614;   553.5053;           60   
     615;   554.3805;           61   
     616;   555.2558;           68   
     617;   556.1311;           72   
     618;   557.0064;           84   
     619;   557.8816;           59   
     620;   558.7569;           70   
     621;   559.6322;           52   
     622;   560.5075;           60   
     623;   561.3827;           63   
     624;   562.2580;           76   
     625;   563.1333;           74   
     626;   564.0086;           57   
     627;   564.8838;           75   
     628;   565.7591;           69   
     629;   566.6344;           72   
     630;   567.5097;           65   
     631;   568.3849;           59   
     632;   569.2602;           90   
     633;   570.1355;          125   
     634;   571.0108;          104   
     635;   571.8860;           79   
     636;   572.7613;           67   
     637;   573.6366;           64   
     638;   574.5119;           62   
     639;   575.3871;           54   
     640;   576.2624;           76   
     641;   577.1377;           60   
     642;   578.0130;           62   
     643;   578.8882;           50   
     644;   579.7635;           66   
     645;   580.6388;           70   
     646;   581.5141;           60   
     647;   582.3893;           52   
     648;   583.2646;           71   
     649;   584.1399;           67   
     650;   585.0152;           57   
     651;   585.8904;           60   
     652;   586.7657;           80   
     653;   587.6410;           61   
     654;   588.5163;           59   
     655;   589.3915;          120   
     656;   590.2668;          135   
     657;   591.1421;           88   
     658;   592.0174;           80   
     659;   592.8926;           83   
     660;   593.7679;           93   
     661;   594.6432;           66   
     662;   595.5185;           62   
     663;   596.3937;           51   
     664;   597.2690;           56   
     665;   598.1443;           67   
     666;   599.0196;           62   
     667;   599.8948;           41   
     668;   600.7701;           51   
     669;   601.6454;           61   
     670;   602.5207;           58   
     671;   603.3959;           54   
     672;   604.2712;           44   
     673;   605.1465;           51   
     674;   606.0218;           56   
     675;   606.8970;           55   
     676;   607.7723;           62   
     677;   608.6476;           49   
     678;   609.5229;           58   
     679;   610.3981;           66   
     680;   611.2734;           48   
     681;   612.1487;           71   
     682;   613.0240;           53   
     683;   613.8992;           45   
     684;   614.7745;           66   
     685;   615.6498;          115   
     686;   616.5251;          130   
     687;   617.4003;           83   
     688;   618.2756;           53   
     689;   619.1509;           53   
     690;   620.0262;           57   
     691;   620.9014;           46   
     692;   621.7767;           57   
     693;   622.6520;           52   
     694;   623.5273;           65   
     695;   624.4025;           52   
     696;   625.2778;           57   
     697;   626.1531;           56   
     698;   627.0284;           61   
     699;   627.9036;           53   
     700;   628.7789;           47   
     701;   629.6542;           51   
     702;   630.5295;           53   
     703;   631.4047;           47   
     704;   632.2800;           44   
     705;   633.1553;           45   
     706;   634.0306;           48   
     707;   634.9058;           59   
     708;   635.7811;           47   
     709;   636.6564;           42   
     710;   637.5317;           44   
     711;   638.4069;           45   
     712;   639.2822;           45   
     713;   640.1575;           56   
     714;   641.0328;           59   
     715;   641.9080;           52   
     716;   642.7833;           45   
     717;   643.6586;           41   
     718;   644.5339;           46   
     719;   645.4091;           44   
     720;   646.2844;           47   
     721;   647.1597;           47   
     722;   648.0350;           59   
     723;   648.9102;           41   
     724;   649.7855;           49   
     725;   650.6608;           49   
     726;   651.5361;           56   
     727;   652.4113;           45   
     728;   653.2866;           43   
     729;   654.1619;           51   
     730;   655.0372;           49   
     731;   655.9124;           53   
     732;   656.7877;           50   
     733;   657.6630;           61   
     734;   658.5383;           54   
     735;   659.4135;           57   
     736;   660.2888;           54   
     737;   661.1641;           62   
     738;   662.0394;           57   
     739;   662.9146;           56   
     740;   663.7899;           64   
     741;   664.6652;           55   
     742;   665.5405;           60   
     743;   666.4157;           57   
     744;   667.2910;           54   
     745;   668.1663;           74   
     746;   669.0416;           86   
     747;   669.9168;           76   
     748;   670.7921;           62   
     749;   671.6674;           49   
     750;   672.5427;           47   
     751;   673.4179;           56   
     752;   674.2932;           38   
     753;   675.1685;           60   
     754;   676.0438;           54   
     755;   676.9190;           63   
     756;   677.7943;           51   
     757;   678.6696;           62   
     758;   679.5449;           50   
     759;   680.4201;           46   
     760;   681.2954;           55   
     761;   682.1707;           63   
     762;   683.0460;           51   
     763;   683.9212;           42   
     764;   684.7965;           57   
     765;   685.6718;           92   
     766;   686.5471;           69   
     767;   687.4223;           54   
     768;   688.2976;           45   
     769;   689.1729;           40   
     770;   690.0482;           41   
     771;   690.9234;           40   
     772;   691.7987;           55   
     773;   692.6740;           46   
     774;   693.5493;           66   
     775;   694.4245;           47   
     776;   695.2998;           62   
     777;   696.1751;          101   
     778;   697.0504;           73   
     779;   697.9256;           53   
     780;   698.8009;           50   
     781;   699.6762;           48   
     782;   700.5515;           62   
     783;   701.4267;           49   
     784;   702.3020;           50   
     785;   703.1773;           45   
     786;   704.0526;           42   
     787;   704.9278;           43   
     788;   705.8031;           44   
     789;   706.6784;           35   
     790;   707.5537;           51   
     791;   708.4289;           40   
     792;   709.3042;           46   
     793;   710.1795;           42   
     794;   711.0548;           46   
     795;   711.9300;           56   
     796;   712.8053;           44   
     797;   713.6806;           63   
     798;   714.5559;           46   
     799;   715.4311;           46   
     800;   716.3064;           43   
     801;   717.1817;           52   
     802;   718.0570;           46   
     803;   718.9322;           37   
     804;   719.8075;           49   
     805;   720.6828;           58   
     806;   721.5581;           49   
     807;   722.4333;           24   
     808;   723.3086;           45   
     809;   724.1839;           39   
     810;   725.0592;           32   
     811;   725.9344;           56   
     812;   726.8097;           69   
     813;   727.6850;           48   
     814;   728.5603;           45   
     815;   729.4355;           55   
     816;   730.3108;           43   
     817;   731.1861;           58   
     818;   732.0614;           48   
     819;   732.9366;           47   
     820;   733.8119;           62   
     821;   734.6872;           51   
     822;   735.5625;           54   
     823;   736.4377;           64   
     824;   737.3130;           47   
     825;   738.1883;           51   
     826;   739.0636;           40   
     827;   739.9388;           49   
     828;   740.8141;           40   
     829;   741.6894;           43   
     830;   742.5647;           53   
     831;   743.4399;           48   
     832;   744.3152;           49   
     833;   745.1905;           37   
     834;   746.0658;           44   
     835;   746.9410;           49   
     836;   747.8163;           57   
     837;   748.6916;           44   
     838;   749.5669;           56   
     839;   750.4421;           56   
     840;   751.3174;           40   
     841;   752.1927;           52   
     842;   753.0680;           46   
     843;   753.9432;           44   
     844;   754.8185;           40   
     845;   755.6938;           57   
     846;   756.5691;           60   
     847;   757.4443;           39   
     848;   758.3196;           52   
     849;   759.1949;           39   
     850;   760.0702;           54   
     851;   760.9454;           50   
     852;   761.8207;           49   
     853;   762.6960;           53   
     854;   763.5713;           47   
     855;   764.4465;           32   
     856;   765.3218;           54   
     857;   766.1971;           63   
     858;   767.0724;           42   
     859;   767.9476;           45   
     860;   768.8229;           44   
     861;   769.6982;           50   
     862;   770.5735;           38   
     863;   771.4487;           55   
     864;   772.3240;           48   
     865;   773.1993;           73   
     866;   774.0746;           51   
     867;   774.9498;           40   
     868;   775.8251;           52   
     869;   776.7004;           55   
     870;   777.5757;           44   
     871;   778.4509;           49   
     872;   779.3262;           50   
     873;   780.2015;           36   
     874;   781.0768;           52   
     875;   781.9520;           38   
     876;   782.8273;           38   
     877;   783.7026;           42   
     878;   784.5779;           50   
     879;   785.4531;          165   
     880;   786.3284;          572   
     881;   787.2037;          718   
     882;   788.0790;          370   
     883;   788.9542;          107   
     884;   789.8295;           45   
     885;   790.7048;           44   
     886;   791.5801;           38   
     887;   792.4553;           37   
     888;   793.3306;           45   
     889;   794.2059;           46   
     890;   795.0812;           30   
     891;   795.9564;           27   
     892;   796.8317;           41   
     893;   797.7070;           43   
     894;   798.5823;           29   
     895;   799.4575;           35   
     896;   800.3328;           40   
     897;   801.2081;           44   
     898;   802.0834;           38   
     899;   802.9586;           47   
     900;   803.8339;           44   
     901;   804.7092;           40   
     902;   805.5845;           45   
     903;   806.4597;           35   
     904;   807.3350;           40   
     905;   808.2103;           54   
     906;   809.0856;           37   
     907;   809.9608;           32   
     908;   810.8361;           41   
     909;   811.7114;           38   
     910;   812.5867;           39   
     911;   813.4619;           45   
     912;   814.3372;           30   
     913;   815.2125;           25   
     914;   816.0878;           47   
     915;   816.9631;           47   
     916;   817.8383;           49   
     917;   818.7136;           54   
     918;   819.5889;           43   
     919;   820.4642;           43   
     920;   821.3394;           42   
     921;   822.2147;           41   
     922;   823.0900;           42   
     923;   823.9653;           36   
     924;   824.8405;           31   
     925;   825.7158;           36   
     926;   826.5911;           41   
     927;   827.4664;           44   
     928;   828.3416;           39   
     929;   829.2169;           29   
     930;   830.0922;           28   
     931;   830.9675;           44   
     932;   831.8427;           40   
     933;   832.7180;           34   
     934;   833.5933;           33   
     935;   834.4686;           39   
     936;   835.3438;           37   
     937;   836.2191;           29   
     938;   837.0944;           49   
     939;   837.9697;           41   
     940;   838.8449;           46   
     941;   839.7202;           44   
     942;   840.5955;           38   
     943;   841.4708;           32   
     944;   842.3460;           26   
     945;   843.2213;           50   
     946;   844.0966;           38   
     947;   844.9719;           32   
     948;   845.8471;           38   
     949;   846.7224;           30   
     950;   847.5977;           34   
     951;   848.4730;           40   
     952;   849.3482;           41   
     953;   850.2235;           47   
     954;   851.0988;           45   
     955;   851.9741;           31   
     956;   852.8493;           35   
     957;   853.7246;           38   
     958;   854.5999;           40   
     959;   855.4752;           35   
     960;   856.3504;           32   
     961;   857.2257;           42   
     962;   858.1010;           38   
     963;   858.9763;           31   
     964;   859.8515;           49   
     965;   860.7268;           36   
     966;   861.6021;           33   
     967;   862.4774;           32   
     968;   863.3526;           37   
     969;   864.2279;           37   
     970;   865.1032;           38   
     971;   865.9785;           39   
     972;   866.8537;           31   
     973;   867.7290;           43   
     974;   868.6043;           42   
     975;   869.4796;           49   
     976;   870.3548;           45   
     977;   871.2301;           44   
     978;   872.1054;           39   
     979;   872.9807;           37   
     980;   873.8559;           42   
     981;   874.7312;           99   
     982;   875.6065;          222   
     983;   876.4818;          214   
     984;   877.3570;           95   
     985;   878.2323;           51   
     986;   879.1076;           37   
     987;   879.9829;           37   
     988;   880.8581;           31   
     989;   881.7334;           37   
     990;   882.6087;           38   
     991;   883.4840;           41   
     992;   884.3592;           51   
     993;   885.2345;           30   
     994;   886.1098;           26   
     995;   886.9851;           43   
     996;   887.8603;           31   
     997;   888.7356;           31   
     998;   889.6109;           38   
     999;   890.4862;           38   
    1000;   891.3614;           44   
    1001;   892.2367;           28   
    1002;   893.1120;           39   
    1003;   893.9873;           38   
    1004;   894.8625;           35   
    1005;   895.7378;           45   
    1006;   896.6131;           30   
    1007;   897.4884;           29   
    1008;   898.3636;           33   
    1009;   899.2389;           34   
    1010;   900.1142;           27   
    1011;   900.9895;           28   
    1012;   901.8647;           44   
    1013;   902.7400;           37   
    1014;   903.6153;           40   
    1015;   904.4906;           38   
    1016;   905.3658;           40   
    1017;   906.2411;           35   
    1018;   907.1164;           32   
    1019;   907.9917;           35   
    1020;   908.8669;           30   
    1021;   909.7422;           48   
    1022;   910.6175;           48   
    1023;   911.4928;           40   
    1024;   912.3680;           39   
    1025;   913.2433;           36   
    1026;   914.1186;           40   
    1027;   914.9939;           47   
    1028;   915.8691;           26   
    1029;   916.7444;           24   
    1030;   917.6197;           24   
    1031;   918.4950;           46   
    1032;   919.3702;           60   
    1033;   920.2455;           71   
    1034;   921.1208;           57   
    1035;   921.9961;           26   
    1036;   922.8713;           28   
    1037;   923.7466;           33   
    1038;   924.6219;           26   
    1039;   925.4972;           28   
    1040;   926.3724;           24   
    1041;   927.2477;           41   
    1042;   928.1230;           44   
    1043;   928.9983;           57   
    1044;   929.8735;           42   
    1045;   930.7488;           26   
    1046;   931.6241;           32   
    1047;   932.4994;           24   
    1048;   933.3746;           29   
    1049;   934.2499;           36   
    1050;   935.1252;           43   
    1051;   936.0005;           32   
    1052;   936.8757;           45   
    1053;   937.7510;           32   
    1054;   938.6263;           30   
    1055;   939.5016;           19   
    1056;   940.3768;           32   
    1057;   941.2521;           24   
    1058;   942.1274;           20   
    1059;   943.0027;           30   
    1060;   943.8779;           35   
    1061;   944.7532;           27   
    1062;   945.6285;           19   
    1063;   946.5038;           29   
    1064;   947.3790;           25   
    1065;   948.2543;           25   
    1066;   949.1296;           26   
    1067;   950.0049;           24   
    1068;   950.8801;           27   
    1069;   951.7554;           25   
    1070;   952.6307;           24   
    1071;   953.5060;           26   
    1072;   954.3812;           25   
    1073;   955.2565;           20   
    1074;   956.1318;           19   
    1075;   957.0071;           25   
    1076;   957.8823;           39   
    1077;   958.7576;           34   
    1078;   959.6329;           32   
    1079;   960.5082;           28   
    1080;   961.3834;           24   
    1081;   962.2587;           29   
    1082;   963.1340;           26   
    1083;   964.0093;           24   
    1084;   964.8845;           24   
    1085;   965.7598;           23   
    1086;   966.6351;           28   
    1087;   967.5104;           32   
    1088;   968.3856;           23   
    1089;   969.2609;           26   
    1090;   970.1362;           30   
    1091;   971.0115;           45   
    1092;   971.8867;          187   
    1093;   972.7620;          548   
    1094;   973.6373;          709   
    1095;   974.5126;          327   
    1096;   975.3878;           87   
    1097;   976.2631;           27   
    1098;   977.1384;           31   
    1099;   978.0137;           56   
    1100;   978.8889;           37   
    1101;   979.7642;           33   
    1102;   980.6395;           27   
    1103;   981.5148;           22   
    1104;   982.3900;           18   
    1105;   983.2653;           24   
    1106;   984.1406;           15   
    1107;   985.0159;           27   
    1108;   985.8911;           18   
    1109;   986.7664;           15   
    1110;   987.6417;           15   
    1111;   988.5170;           22   
    1112;   989.3922;           26   
    1113;   990.2675;           24   
    1114;   991.1428;           34   
    1115;   992.0181;           23   
    1116;   992.8933;           21   
    1117;   993.7686;           17   
    1118;   994.6439;           19   
    1119;   995.5192;           30   
    1120;   996.3944;           18   
    1121;   997.2697;           20   
    1122;   998.1450;           29   
    1123;   999.0203;           25   
    1124;   999.8955;           18   
    1125;  1000.7708;           24   
    1126;  1001.6461;           31   
    1127;  1002.5214;           21   
    1128;  1003.3966;           19   
    1129;  1004.2719;           29   
    1130;  1005.1472;           18   
    1131;  1006.0225;           18   
    1132;  1006.8977;           28   
    1133;  1007.7730;           19   
    1134;  1008.6483;           20   
    1135;  1009.5236;           23   
    1136;  1010.3988;           30   
    1137;  1011.2741;           19   
    1138;  1012.1494;           22   
    1139;  1013.0247;           40   
    1140;  1013.8999;           35   
    1141;  1014.7752;           44   
    1142;  1015.6505;           43   
    1143;  1016.5258;           26   
    1144;  1017.4010;           21   
    1145;  1018.2763;           24   
    1146;  1019.1516;           27   
    1147;  1020.0269;           18   
    1148;  1020.9021;           30   
    1149;  1021.7774;           17   
    1150;  1022.6527;           13   
    1151;  1023.5280;           21   
    1152;  1024.4032;           23   
    1153;  1025.2785;           13   
    1154;  1026.1538;           25   
    1155;  1027.0291;           26   
    1156;  1027.9043;           23   
    1157;  1028.7796;           19   
    1158;  1029.6549;           25   
    1159;  1030.5302;           17   
    1160;  1031.4054;           24   
    1161;  1032.2807;           24   
    1162;  1033.1560;           20   
    1163;  1034.0313;           20   
    1164;  1034.9065;           18   
    1165;  1035.7818;           22   
    1166;  1036.6571;           20   
    1167;  1037.5324;           18   
    1168;  1038.4076;           24   
    1169;  1039.2829;           17   
    1170;  1040.1582;           23   
    1171;  1041.0335;           22   
    1172;  1041.9087;           17   
    1173;  1042.7840;           28   
    1174;  1043.6593;           30   
    1175;  1044.5346;           25   
    1176;  1045.4098;           17   
    1177;  1046.2851;           18   
    1178;  1047.1604;           15   
    1179;  1048.0357;           17   
    1180;  1048.9109;           18   
    1181;  1049.7862;           26   
    1182;  1050.6615;           30   
    1183;  1051.5368;           21   
    1184;  1052.4120;           17   
    1185;  1053.2873;           10   
    1186;  1054.1626;           23   
    1187;  1055.0379;           16   
    1188;  1055.9131;           21   
    1189;  1056.7884;           23   
    1190;  1057.6637;           23   
    1191;  1058.5390;           18   
    1192;  1059.4142;           27   
    1193;  1060.2895;           18   
    1194;  1061.1648;           26   
    1195;  1062.0401;           19   
    1196;  1062.9153;           23   
    1197;  1063.7906;           16   
    1198;  1064.6659;           26   
    1199;  1065.5412;           28   
    1200;  1066.4164;           20   
    1201;  1067.2917;           24   
    1202;  1068.1670;           11   
    1203;  1069.0423;           20   
    1204;  1069.9175;           14   
    1205;  1070.7928;           18   
    1206;  1071.6681;           22   
    1207;  1072.5434;           14   
    1208;  1073.4186;           23   
    1209;  1074.2939;           21   
    1210;  1075.1692;           23   
    1211;  1076.0445;           26   
    1212;  1076.9197;           31   
    1213;  1077.7950;           23   
    1214;  1078.6703;           26   
    1215;  1079.5456;           22   
    1216;  1080.4208;           18   
    1217;  1081.2961;           23   
    1218;  1082.1714;           18   
    1219;  1083.0467;           20   
    1220;  1083.9219;           36   
    1221;  1084.7972;           15   
    1222;  1085.6725;           24   
    1223;  1086.5478;           28   
    1224;  1087.4230;           28   
    1225;  1088.2983;           20   
    1226;  1089.1736;           21   
    1227;  1090.0489;           24   
    1228;  1090.9241;           20   
    1229;  1091.7994;           26   
    1230;  1092.6747;           20   
    1231;  1093.5500;           38   
    1232;  1094.4252;          124   
    1233;  1095.3005;          319   
    1234;  1096.1758;          400   
    1235;  1097.0511;          247   
    1236;  1097.9263;           61   
    1237;  1098.8016;           50   
    1238;  1099.6769;           88   
    1239;  1100.5522;           68   
    1240;  1101.4274;           46   
    1241;  1102.3027;           29   
    1242;  1103.1780;           17   
    1243;  1104.0533;           20   
    1244;  1104.9285;           21   
    1245;  1105.8038;           24   
    1246;  1106.6791;           18   
    1247;  1107.5544;           22   
    1248;  1108.4296;           22   
    1249;  1109.3049;           31   
    1250;  1110.1802;           22   
    1251;  1111.0555;           14   
    1252;  1111.9307;           22   
    1253;  1112.8060;           20   
    1254;  1113.6813;           17   
    1255;  1114.5566;           25   
    1256;  1115.4318;           26   
    1257;  1116.3071;           21   
    1258;  1117.1824;           24   
    1259;  1118.0577;           22   
    1260;  1118.9329;           26   
    1261;  1119.8082;           49   
    1262;  1120.6835;          124   
    1263;  1121.5588;          375   
    1264;  1122.4340;          532   
    1265;  1123.3093;          334   
    1266;  1124.1846;           94   
    1267;  1125.0599;           17   
    1268;  1125.9351;           25   
    1269;  1126.8104;           20   
    1270;  1127.6857;           16   
    1271;  1128.5610;           14   
    1272;  1129.4362;           32   
    1273;  1130.3115;           45   
    1274;  1131.1868;           40   
    1275;  1132.0621;           20   
    1276;  1132.9373;           20   
    1277;  1133.8126;           17   
    1278;  1134.6879;           19   
    1279;  1135.5632;           28   
    1280;  1136.4384;           29   
    1281;  1137.3137;           19   
    1282;  1138.1890;           13   
    1283;  1139.0643;           27   
    1284;  1139.9395;           14   
    1285;  1140.8148;           21   
    1286;  1141.6901;           18   
    1287;  1142.5654;           18   
    1288;  1143.4406;           22   
    1289;  1144.3159;           21   
    1290;  1145.1912;           20   
    1291;  1146.0665;           21   
    1292;  1146.9417;           26   
    1293;  1147.8170;           21   
    1294;  1148.6923;           15   
    1295;  1149.5676;           21   
    1296;  1150.4428;           17   
    1297;  1151.3181;           22   
    1298;  1152.1934;           13   
    1299;  1153.0687;           26   
    1300;  1153.9439;           24   
    1301;  1154.8192;           20   
    1302;  1155.6945;           27   
    1303;  1156.5698;           28   
    1304;  1157.4450;           15   
    1305;  1158.3203;           19   
    1306;  1159.1956;           24   
    1307;  1160.0709;           19   
    1308;  1160.9461;           27   
    1309;  1161.8214;           10   
    1310;  1162.6967;           20   
    1311;  1163.5720;           11   
    1312;  1164.4472;           27   
    1313;  1165.3225;           34   
    1314;  1166.1978;           25   
    1315;  1167.0731;           15   
    1316;  1167.9483;           20   
    1317;  1168.8236;           35   
    1318;  1169.6989;           19   
    1319;  1170.5742;           13   
    1320;  1171.4494;           17   
    1321;  1172.3247;           21   
    1322;  1173.2000;           32   
    1323;  1174.0753;           23   
    1324;  1174.9505;           28   
    1325;  1175.8258;           21   
    1326;  1176.7011;           17   
    1327;  1177.5764;           20   
    1328;  1178.4516;           16   
    1329;  1179.3269;           16   
    1330;  1180.2022;           19   
    1331;  1181.0775;           22   
    1332;  1181.9527;           17   
    1333;  1182.8280;           22   
    1334;  1183.7033;           20   
    1335;  1184.5786;           18   
    1336;  1185.4538;           31   
    1337;  1186.3291;           19   
    1338;  1187.2044;           24   
    1339;  1188.0797;           34   
    1340;  1188.9549;           28   
    1341;  1189.8302;           24   
    1342;  1190.7055;           23   
    1343;  1191.5808;           25   
    1344;  1192.4560;           22   
    1345;  1193.3313;           22   
    1346;  1194.2066;           24   
    1347;  1195.0819;           26   
    1348;  1195.9571;           31   
    1349;  1196.8324;           23   
    1350;  1197.7077;           24   
    1351;  1198.5830;           28   
    1352;  1199.4582;           22   
    1353;  1200.3335;           23   
    1354;  1201.2088;           25   
    1355;  1202.0841;           32   
    1356;  1202.9593;           22   
    1357;  1203.8346;           22   
    1358;  1204.7099;           16   
    1359;  1205.5852;           15   
    1360;  1206.4604;           23   
    1361;  1207.3357;           21   
    1362;  1208.2110;           22   
    1363;  1209.0863;           24   
    1364;  1209.9615;           19   
    1365;  1210.8368;           31   
    1366;  1211.7121;           20   
    1367;  1212.5874;           19   
    1368;  1213.4626;           21   
    1369;  1214.3379;           12   
    1370;  1215.2132;           14   
    1371;  1216.0885;           20   
    1372;  1216.9637;           22   
    1373;  1217.8390;           22   
    1374;  1218.7143;           15   
    1375;  1219.5896;           18   
    1376;  1220.4648;           16   
    1377;  1221.3401;           25   
    1378;  1222.2154;           22   
    1379;  1223.0907;           42   
    1380;  1223.9659;           62   
    1381;  1224.8412;           50   
    1382;  1225.7165;           20   
    1383;  1226.5918;           17   
    1384;  1227.4670;            9   
    1385;  1228.3423;           13   
    1386;  1229.2176;           15   
    1387;  1230.0929;           17   
    1388;  1230.9681;           24   
    1389;  1231.8434;           22   
    1390;  1232.7187;           10   
    1391;  1233.5940;           14   
    1392;  1234.4692;           15   
    1393;  1235.3445;           22   
    1394;  1236.2198;           17   
    1395;  1237.0951;           18   
    1396;  1237.9703;           27   
    1397;  1238.8456;           20   
    1398;  1239.7209;           15   
    1399;  1240.5962;           12   
    1400;  1241.4714;           19   
    1401;  1242.3467;           14   
    1402;  1243.2220;           12   
    1403;  1244.0973;           11   
    1404;  1244.9725;           10   
    1405;  1245.8478;           21   
    1406;  1246.7231;           12   
    1407;  1247.5984;           17   
    1408;  1248.4736;           26   
    1409;  1249.3489;           23   
    1410;  1250.2242;           16   
    1411;  1251.0995;           18   
    1412;  1251.9747;           11   
    1413;  1252.8500;           23   
    1414;  1253.7253;           13   
    1415;  1254.6006;           13   
    1416;  1255.4758;           15   
    1417;  1256.3511;           23   
    1418;  1257.2264;           16   
    1419;  1258.1017;           24   
    1420;  1258.9769;           18   
    1421;  1259.8522;           17   
    1422;  1260.7275;           17   
    1423;  1261.6028;           21   
    1424;  1262.4780;            9   
    1425;  1263.3533;           11   
    1426;  1264.2286;           15   
    1427;  1265.1039;            8   
    1428;  1265.9791;           12   
    1429;  1266.8544;            7   
    1430;  1267.7297;           23   
    1431;  1268.6050;           10   
    1432;  1269.4802;           18   
    1433;  1270.3555;           17   
    1434;  1271.2308;           10   
    1435;  1272.1061;           10   
    1436;  1272.9813;            9   
    1437;  1273.8566;            7   
    1438;  1274.7319;           14   
    1439;  1275.6072;           14   
    1440;  1276.4824;           12   
    1441;  1277.3577;           15   
    1442;  1278.2330;           12   
    1443;  1279.1083;           16   
    1444;  1279.9835;           14   
    1445;  1280.8588;            6   
    1446;  1281.7341;           15   
    1447;  1282.6094;           10   
    1448;  1283.4846;           14   
    1449;  1284.3599;           12   
    1450;  1285.2352;           16   
    1451;  1286.1105;           12   
    1452;  1286.9857;           16   
    1453;  1287.8610;           19   
    1454;  1288.7363;           12   
    1455;  1289.6116;           14   
    1456;  1290.4868;           18   
    1457;  1291.3621;            8   
    1458;  1292.2374;           12   
    1459;  1293.1127;           18   
    1460;  1293.9879;            7   
    1461;  1294.8632;           16   
    1462;  1295.7385;           15   
    1463;  1296.6138;            8   
    1464;  1297.4890;           15   
    1465;  1298.3643;           16   
    1466;  1299.2396;            7   
    1467;  1300.1149;           11   
    1468;  1300.9901;            5   
    1469;  1301.8654;           10   
    1470;  1302.7407;           13   
    1471;  1303.6160;            9   
    1472;  1304.4912;           12   
    1473;  1305.3665;            8   
    1474;  1306.2418;           15   
    1475;  1307.1171;            7   
    1476;  1307.9923;           16   
    1477;  1308.8676;           21   
    1478;  1309.7429;           43   
    1479;  1310.6182;           58   
    1480;  1311.4934;           44   
    1481;  1312.3687;           14   
    1482;  1313.2440;            4   
    1483;  1314.1193;            9   
    1484;  1314.9945;            9   
    1485;  1315.8698;            5   
    1486;  1316.7451;            7   
    1487;  1317.6204;            9   
    1488;  1318.4956;            4   
    1489;  1319.3709;            7   
    1490;  1320.2462;            4   
    1491;  1321.1215;            3   
    1492;  1321.9967;            5   
    1493;  1322.8720;            9   
    1494;  1323.7473;            8   
    1495;  1324.6226;            4   
    1496;  1325.4978;            7   
    1497;  1326.3731;            5   
    1498;  1327.2484;            5   
    1499;  1328.1237;            6   
    1500;  1328.9989;            5   
    1501;  1329.8742;            6   
    1502;  1330.7495;            4   
    1503;  1331.6248;            7   
    1504;  1332.5000;           11   
    1505;  1333.3753;            3   
    1506;  1334.2506;            2   
    1507;  1335.1259;            6   
    1508;  1336.0011;            6   
    1509;  1336.8764;           10   
    1510;  1337.7517;            3   
    1511;  1338.6270;            5   
    1512;  1339.5022;           12   
    1513;  1340.3775;            7   
    1514;  1341.2528;            7   
    1515;  1342.1281;            6   
    1516;  1343.0033;            3   
    1517;  1343.8786;            7   
    1518;  1344.7539;            7   
    1519;  1345.6292;            9   
    1520;  1346.5044;            6   
    1521;  1347.3797;            6   
    1522;  1348.2550;            5   
    1523;  1349.1303;            9   
    1524;  1350.0055;            2   
    1525;  1350.8808;            6   
    1526;  1351.7561;            8   
    1527;  1352.6314;           10   
    1528;  1353.5066;            1   
    1529;  1354.3819;            7   
    1530;  1355.2572;            9   
    1531;  1356.1325;           11   
    1532;  1357.0077;            4   
    1533;  1357.8830;            3   
    1534;  1358.7583;            4   
    1535;  1359.6336;            6   
    1536;  1360.5088;            5   
    1537;  1361.3841;            9   
    1538;  1362.2594;            7   
    1539;  1363.1347;            7   
    1540;  1364.0099;            5   
    1541;  1364.8852;            1   
    1542;  1365.7605;            4   
    1543;  1366.6358;            4   
    1544;  1367.5110;            4   
    1545;  1368.3863;            3   
    1546;  1369.2616;            4   
    1547;  1370.1369;            6   
    1548;  1371.0121;            6   
    1549;  1371.8874;            8   
    1550;  1372.7627;            3   
    1551;  1373.6380;            6   
    1552;  1374.5132;            6   
    1553;  1375.3885;            5   
    1554;  1376.2638;            4   
    1555;  1377.1391;            3   
    1556;  1378.0143;            4   
    1557;  1378.8896;            7   
    1558;  1379.7649;            8   
    1559;  1380.6402;            3   
    1560;  1381.5154;            8   
    1561;  1382.3907;            6   
    1562;  1383.2660;           10   
    1563;  1384.1413;            2   
    1564;  1385.0165;            6   
    1565;  1385.8918;            5   
    1566;  1386.7671;            8   
    1567;  1387.6424;            7   
    1568;  1388.5176;            7   
    1569;  1389.3929;           13   
    1570;  1390.2682;           11   
    1571;  1391.1435;            9   
    1572;  1392.0187;            6   
    1573;  1392.8940;            7   
    1574;  1393.7693;            4   
    1575;  1394.6446;            6   
    1576;  1395.5198;            6   
    1577;  1396.3951;            9   
    1578;  1397.2704;            6   
    1579;  1398.1457;            6   
    1580;  1399.0209;            3   
    1581;  1399.8962;            6   
    1582;  1400.7715;            4   
    1583;  1401.6468;            3   
    1584;  1402.5220;            6   
    1585;  1403.3973;            9   
    1586;  1404.2726;            4   
    1587;  1405.1479;            5   
    1588;  1406.0231;            3   
    1589;  1406.8984;            4   
    1590;  1407.7737;            5   
    1591;  1408.6490;            6   
    1592;  1409.5242;            3   
    1593;  1410.3995;            4   
    1594;  1411.2748;            1   
    1595;  1412.1501;            5   
    1596;  1413.0253;            4   
    1597;  1413.9006;            6   
    1598;  1414.7759;            6   
    1599;  1415.6512;            9   
    1600;  1416.5264;           12   
    1601;  1417.4017;           38   
    1602;  1418.2770;          113   
    1603;  1419.1523;          372   
    1604;  1420.0275;          563   
    1605;  1420.9028;          424   
    1606;  1421.7781;          169   
    1607;  1422.6534;           41   
    1608;  1423.5286;            8   
    1609;  1424.4039;            1   
    1610;  1425.2792;            3   
    1611;  1426.1545;            4   
    1612;  1427.0297;            2   
    1613;  1427.9050;            5   
    1614;  1428.7803;            3   
    1615;  1429.6556;            1   
    1616;  1430.5308;            5   
    1617;  1431.4061;            2   
    1618;  1432.2814;            3   
    1619;  1433.1567;            2   
    1620;  1434.0319;            8   
    1621;  1434.9072;            5   
    1622;  1435.7825;            4   
    1623;  1436.6578;            3   
    1624;  1437.5330;            3   
    1625;  1438.4083;            5   
    1626;  1439.2836;            1   
    1627;  1440.1589;            2   
    1628;  1441.0341;            1   
    1629;  1441.9094;            3   
    1630;  1442.7847;            5   
    1631;  1443.6600;            2   
    1632;  1444.5352;            2   
    1633;  1445.4105;            0   
    1634;  1446.2858;            3   
    1635;  1447.1611;            3   
    1636;  1448.0363;            5   
    1637;  1448.9116;            3   
    1638;  1449.7869;            4   
    1639;  1450.6622;            4   
    1640;  1451.5374;            4   
    1641;  1452.4127;            5   
    1642;  1453.2880;            5   
    1643;  1454.1633;            4   
    1644;  1455.0385;            2   
    1645;  1455.9138;            6   
    1646;  1456.7891;            4   
    1647;  1457.6644;            4   
    1648;  1458.5396;            4   
    1649;  1459.4149;            3   
    1650;  1460.2902;            3   
    1651;  1461.1655;            2   
    1652;  1462.0407;            2   
    1653;  1462.9160;            3   
    1654;  1463.7913;            6   
    1655;  1464.6666;            4   
    1656;  1465.5418;            6   
    1657;  1466.4171;            3   
    1658;  1467.2924;            6   
    1659;  1468.1677;            6   
    1660;  1469.0429;           14   
    1661;  1469.9182;           28   
    1662;  1470.7935;           44   
    1663;  1471.6688;          126   
    1664;  1472.5440;          232   
    1665;  1473.4193;          336   
    1666;  1474.2946;          182   
    1667;  1475.1699;           65   
    1668;  1476.0451;           10   
    1669;  1476.9204;            2   
    1670;  1477.7957;            3   
    1671;  1478.6710;            2   
    1672;  1479.5462;            0   
    1673;  1480.4215;            1   
    1674;  1481.2968;            2   
    1675;  1482.1721;            0   
    1676;  1483.0473;            2   
    1677;  1483.9226;            0   
    1678;  1484.7979;            1   
    1679;  1485.6732;            3   
    1680;  1486.5484;            0   
    1681;  1487.4237;            5   
    1682;  1488.2990;            3   
    1683;  1489.1743;            2   
    1684;  1490.0495;            2   
    1685;  1490.9248;            2   
    1686;  1491.8001;            2   
    1687;  1492.6754;            3   
    1688;  1493.5506;            2   
    1689;  1494.4259;            0   
    1690;  1495.3012;            1   
    1691;  1496.1765;            1   
    1692;  1497.0517;            0   
    1693;  1497.9270;            1   
    1694;  1498.8023;            4   
    1695;  1499.6776;            3   
    1696;  1500.5528;            2   
    1697;  1501.4281;            2   
    1698;  1502.3034;            4   
    1699;  1503.1787;            2   
    1700;  1504.0539;            2   
    1701;  1504.9292;            1   
    1702;  1505.8045;            1   
    1703;  1506.6798;            2   
    1704;  1507.5550;            4   
    1705;  1508.4303;            2   
    1706;  1509.3056;            4   
    1707;  1510.1809;            3   
    1708;  1511.0561;            4   
    1709;  1511.9314;            0   
    1710;  1512.8067;            3   
    1711;  1513.6820;            2   
    1712;  1514.5572;            2   
    1713;  1515.4325;            0   
    1714;  1516.3078;            0   
    1715;  1517.1831;            3   
    1716;  1518.0583;            2   
    1717;  1518.9336;            1   
    1718;  1519.8089;            3   
    1719;  1520.6842;            1   
    1720;  1521.5594;            5   
    1721;  1522.4347;            3   
    1722;  1523.3100;            1   
    1723;  1524.1853;            2   
    1724;  1525.0605;            1   
    1725;  1525.9358;            2   
    1726;  1526.8111;            3   
    1727;  1527.6864;            1   
    1728;  1528.5616;            0   
    1729;  1529.4369;            2   
    1730;  1530.3122;            2   
    1731;  1531.1875;            3   
    1732;  1532.0627;            2   
    1733;  1532.9380;            1   
    1734;  1533.8133;            2   
    1735;  1534.6886;            1   
    1736;  1535.5638;            0   
    1737;  1536.4391;            3   
    1738;  1537.3144;            0   
    1739;  1538.1897;            2   
    1740;  1539.0649;            9   
    1741;  1539.9402;           13   
    1742;  1540.8155;           13   
    1743;  1541.6908;           11   
    1744;  1542.5660;            9   
    1745;  1543.4413;            0   
    1746;  1544.3166;            2   
    1747;  1545.1919;            5   
    1748;  1546.0671;            2   
    1749;  1546.9424;            2   
    1750;  1547.8177;            1   
    1751;  1548.6930;            2   
    1752;  1549.5682;            3   
    1753;  1550.4435;            1   
    1754;  1551.3188;            2   
    1755;  1552.1941;            3   
    1756;  1553.0693;            1   
    1757;  1553.9446;            3   
    1758;  1554.8199;            1   
    1759;  1555.6952;            3   
    1760;  1556.5704;            1   
    1761;  1557.4457;            3   
    1762;  1558.3210;            1   
    1763;  1559.1963;            1   
    1764;  1560.0715;            5   
    1765;  1560.9468;            3   
    1766;  1561.8221;            1   
    1767;  1562.6974;            0   
    1768;  1563.5726;            2   
    1769;  1564.4479;            2   
    1770;  1565.3232;            4   
    1771;  1566.1985;            1   
    1772;  1567.0737;            1   
    1773;  1567.9490;            0   
    1774;  1568.8243;            3   
    1775;  1569.6996;            4   
    1776;  1570.5748;            3   
    1777;  1571.4501;            2   
    1778;  1572.3254;            1   
    1779;  1573.2007;            1   
    1780;  1574.0759;            0   
    1781;  1574.9512;            0   
    1782;  1575.8265;            3   
    1783;  1576.7018;            1   
    1784;  1577.5770;            1   
    1785;  1578.4523;            2   
    1786;  1579.3276;            1   
    1787;  1580.2029;            3   
    1788;  1581.0781;            1   
    1789;  1581.9534;            0   
    1790;  1582.8287;            1   
    1791;  1583.7040;            2   
    1792;  1584.5792;            3   
    1793;  1585.4545;            1   
    1794;  1586.3298;            4   
    1795;  1587.2051;            4   
    1796;  1588.0803;            1   
    1797;  1588.9556;            0   
    1798;  1589.8309;            2   
    1799;  1590.7062;            2   
    1800;  1591.5814;            2   
    1801;  1592.4567;            4   
    1802;  1593.3320;            3   
    1803;  1594.2073;            2   
    1804;  1595.0825;            1   
    1805;  1595.9578;            3   
    1806;  1596.8331;            3   
    1807;  1597.7084;            1   
    1808;  1598.5836;            2   
    1809;  1599.4589;            2   
    1810;  1600.3342;            6   
    1811;  1601.2095;            7   
    1812;  1602.0847;            1   
    1813;  1602.9600;            1   
    1814;  1603.8353;            1   
    1815;  1604.7106;            2   
    1816;  1605.5858;            9   
    1817;  1606.4611;            3   
    1818;  1607.3364;            6   
    1819;  1608.2117;            2   
    1820;  1609.0869;            3   
    1821;  1609.9622;            2   
    1822;  1610.8375;            5   
    1823;  1611.7128;            2   
    1824;  1612.5880;            1   
    1825;  1613.4633;            1   
    1826;  1614.3386;            0   
    1827;  1615.2139;            2   
    1828;  1616.0891;            2   
    1829;  1616.9644;            2   
    1830;  1617.8397;            0   
    1831;  1618.7150;            2   
    1832;  1619.5902;            2   
    1833;  1620.4655;            3   
    1834;  1621.3408;            1   
    1835;  1622.2161;            0   
    1836;  1623.0913;            1   
    1837;  1623.9666;            3   
    1838;  1624.8419;            1   
    1839;  1625.7172;            3   
    1840;  1626.5924;            0   
    1841;  1627.4677;            1   
    1842;  1628.3430;            2   
    1843;  1629.2183;            2   
    1844;  1630.0935;            2   
    1845;  1630.9688;            1   
    1846;  1631.8441;            2   
    1847;  1632.7194;            2   
    1848;  1633.5946;            2   
    1849;  1634.4699;            1   
    1850;  1635.3452;            2   
    1851;  1636.2205;            0   
    1852;  1637.0957;            1   
    1853;  1637.9710;            2   
    1854;  1638.8463;            1   
    1855;  1639.7216;            2   
    1856;  1640.5968;            5   
    1857;  1641.4721;            3   
    1858;  1642.3474;            2   
    1859;  1643.2227;            1   
    1860;  1644.0979;            5   
    1861;  1644.9732;            1   
    1862;  1645.8485;            2   
    1863;  1646.7238;            0   
    1864;  1647.5990;            0   
    1865;  1648.4743;            1   
    1866;  1649.3496;            2   
    1867;  1650.2249;            1   
    1868;  1651.1001;            2   
    1869;  1651.9754;            4   
    1870;  1652.8507;            1   
    1871;  1653.7260;            0   
    1872;  1654.6012;            3   
    1873;  1655.4765;            4   
    1874;  1656.3518;            1   
    1875;  1657.2271;            2   
    1876;  1658.1023;            2   
    1877;  1658.9776;            2   
    1878;  1659.8529;            2   
    1879;  1660.7282;            2   
    1880;  1661.6034;            0   
    1881;  1662.4787;            1   
    1882;  1663.3540;            3   
    1883;  1664.2293;            1   
    1884;  1665.1045;            2   
    1885;  1665.9798;            0   
    1886;  1666.8551;            0   
    1887;  1667.7304;            0   
    1888;  1668.6056;            2   
    1889;  1669.4809;            2   
    1890;  1670.3562;            0   
    1891;  1671.2315;            2   
    1892;  1672.1067;            1   
    1893;  1672.9820;            0   
    1894;  1673.8573;            2   
    1895;  1674.7326;            3   
    1896;  1675.6078;            1   
    1897;  1676.4831;            1   
    1898;  1677.3584;            1   
    1899;  1678.2337;            3   
    1900;  1679.1089;            2   
    1901;  1679.9842;            3   
    1902;  1680.8595;            1   
    1903;  1681.7348;            3   
    1904;  1682.6100;            1   
    1905;  1683.4853;            2   
    1906;  1684.3606;            0   
    1907;  1685.2359;            2   
    1908;  1686.1111;            0   
    1909;  1686.9864;            1   
    1910;  1687.8617;            1   
    1911;  1688.7370;            1   
    1912;  1689.6122;            0   
    1913;  1690.4875;            0   
    1914;  1691.3628;            0   
    1915;  1692.2381;            0   
    1916;  1693.1133;            2   
    1917;  1693.9886;            3   
    1918;  1694.8639;            1   
    1919;  1695.7392;            1   
    1920;  1696.6144;            1   
    1921;  1697.4897;            2   
    1922;  1698.3650;            3   
    1923;  1699.2403;            2   
    1924;  1700.1155;            2   
    1925;  1700.9908;            0   
    1926;  1701.8661;            1   
    1927;  1702.7414;            1   
    1928;  1703.6166;            2   
    1929;  1704.4919;            2   
    1930;  1705.3672;            1   
    1931;  1706.2425;            0   
    1932;  1707.1177;            2   
    1933;  1707.9930;            1   
    1934;  1708.8683;            2   
    1935;  1709.7436;            1   
    1936;  1710.6188;            1   
    1937;  1711.4941;            1   
    1938;  1712.3694;            1   
    1939;  1713.2447;            0   
    1940;  1714.1199;            0   
    1941;  1714.9952;            1   
    1942;  1715.8705;            2   
    1943;  1716.7458;            1   
    1944;  1717.6210;            0   
    1945;  1718.4963;            3   
    1946;  1719.3716;            2   
    1947;  1720.2469;            0   
    1948;  1721.1221;            1   
    1949;  1721.9974;            0   
    1950;  1722.8727;            0   
    1951;  1723.7480;            1   
    1952;  1724.6232;            1   
    1953;  1725.4985;            1   
    1954;  1726.3738;            3   
    1955;  1727.2491;            1   
    1956;  1728.1243;            1   
    1957;  1728.9996;            0   
    1958;  1729.8749;            1   
    1959;  1730.7502;            1   
    1960;  1731.6254;            0   
    1961;  1732.5007;            2   
    1962;  1733.3760;            2   
    1963;  1734.2513;            2   
    1964;  1735.1265;            1   
    1965;  1736.0018;            2   
    1966;  1736.8771;            4   
    1967;  1737.7524;            0   
    1968;  1738.6276;            1   
    1969;  1739.5029;            1   
    1970;  1740.3782;            0   
    1971;  1741.2535;            2   
    1972;  1742.1287;            1   
    1973;  1743.0040;            2   
    1974;  1743.8793;            1   
    1975;  1744.7546;            2   
    1976;  1745.6298;            3   
    1977;  1746.5051;            2   
    1978;  1747.3804;            0   
    1979;  1748.2557;            0   
    1980;  1749.1309;            0   
    1981;  1750.0062;            0   
    1982;  1750.8815;            0   
    1983;  1751.7568;            0   
    1984;  1752.6320;            0   
    1985;  1753.5073;            0   
    1986;  1754.3826;            0   
    1987;  1755.2579;            0   
    1988;  1756.1331;            0   
    1989;  1757.0084;            0   
    1990;  1757.8837;            0   
    1991;  1758.7590;            0   
    1992;  1759.6342;            0   
    1993;  1760.5095;            0   
    1994;  1761.3848;            0   
    1995;  1762.2601;            0   
    1996;  1763.1353;            0   
    1997;  1764.0106;            0   
    1998;  1764.8859;            0   
    1999;  1765.7612;            0   
    2000;  1766.6364;            0   
    2001;  1767.5117;            0   
    2002;  1768.3870;            0   
    2003;  1769.2623;            0   
    2004;  1770.1375;            0   
    2005;  1771.0128;            0   
    2006;  1771.8881;            0   
    2007;  1772.7634;            0   
    2008;  1773.6386;            0   
    2009;  1774.5139;            0   
    2010;  1775.3892;            0   
    2011;  1776.2645;            0   
    2012;  1777.1397;            0   
    2013;  1778.0150;            0   
    2014;  1778.8903;            0   
    2015;  1779.7656;            0   
    2016;  1780.6408;            0   
    2017;  1781.5161;            0   
    2018;  1782.3914;            0   
    2019;  1783.2667;            0   
    2020;  1784.1419;            0   
    2021;  1785.0172;            0   
    2022;  1785.8925;            0   
    2023;  1786.7678;            0   
    2024;  1787.6430;            0   
    2025;  1788.5183;            0   
    2026;  1789.3936;            0   
    2027;  1790.2689;            0   
    2028;  1791.1441;            0   
    2029;  1792.0194;            0   
    2030;  1792.8947;            0   
    2031;  1793.7700;            0   
    2032;  1794.6452;            0   
    2033;  1795.5205;            0   
    2034;  1796.3958;            0   
    2035;  1797.2711;            0   
    2036;  1798.1463;            0   
    2037;  1799.0216;            0   
    2038;  1799.8969;            0   
    2039;  1800.7722;            0   
    2040;  1801.6474;            0   
    2041;  1802.5227;            0   
    2042;  1803.3980;            0   
    2043;  1804.2733;            0   
    2044;  1805.1485;            0   
    2045;  1806.0238;            0   
    2046;  1806.8991;            0   
    2047;  1807.7744;            0   
    2048;  1808.6496;            0   
ROI Nummer; Anfangskanal; Endkanal; Anfangsenergie keV ; Endenergie keV; Nettoimpulse; Bruttoimpulse; Untergrundimpulse
In den Daten wurden keine Linien gefunden
ROI Nummer; prozentualer Fehler der Lage; Lage keV; FWHM keV; FWTM keV; FWTM/FWHM Verhltnis; H/L Verhltnis
No Peak records found in data.
Name; Energie keV; Flags; Aktivitt uCi/Unit; Aktivittsfehler %; NWG uCi/Unit; MDA Error %
Es wurden keine Nuklidergebnisse gefunden.
Name; Erwartete Endergie keV; Gemessene Energie keV; Differenz von erwarteter keV; FWHM; Flags; Aktivitt uCi/Unit; Aktivittsfehler %
Es wurden keine Nuklidergebnisse gefunden.
