Kanal;   Energie(keV); Impulse
       1;    16.9617;          518   
       2;    17.8370;          538   
       3;    18.7122;          522   
       4;    19.5875;          467   
       5;    20.4628;          510   
       6;    21.3381;          442   
       7;    22.2133;          429   
       8;    23.0886;          445   
       9;    23.9639;          465   
      10;    24.8392;          425   
      11;    25.7144;          415   
      12;    26.5897;          395   
      13;    27.4650;          365   
      14;    28.3403;          386   
      15;    29.2155;          382   
      16;    30.0908;          383   
      17;    30.9661;          385   
      18;    31.8414;          388   
      19;    32.7166;          382   
      20;    33.5919;          360   
      21;    34.4672;          395   
      22;    35.3425;          403   
      23;    36.2177;          403   
      24;    37.0930;          350   
      25;    37.9683;          377   
      26;    38.8436;          362   
      27;    39.7188;          358   
      28;    40.5941;          363   
      29;    41.4694;          399   
      30;    42.3447;          398   
      31;    43.2199;          435   
      32;    44.0952;          353   
      33;    44.9705;          345   
      34;    45.8458;          341   
      35;    46.7210;          386   
      36;    47.5963;          408   
      37;    48.4716;          395   
      38;    49.3469;          410   
      39;    50.2221;          339   
      40;    51.0974;          341   
      41;    51.9727;          308   
      42;    52.8480;          323   
      43;    53.7232;          301   
      44;    54.5985;          300   
      45;    55.4738;          307   
      46;    56.3491;          326   
      47;    57.2243;          322   
      48;    58.0996;          319   
      49;    58.9749;          318   
      50;    59.8502;          348   
      51;    60.7254;          306   
      52;    61.6007;          334   
      53;    62.4760;          342   
      54;    63.3513;          299   
      55;    64.2265;          338   
      56;    65.1018;          326   
      57;    65.9771;          343   
      58;    66.8524;          332   
      59;    67.7276;          350   
      60;    68.6029;          336   
      61;    69.4782;          381   
      62;    70.3535;          402   
      63;    71.2287;          372   
      64;    72.1040;          412   
      65;    72.9793;          453   
      66;    73.8546;          431   
      67;    74.7298;          590   
      68;    75.6051;          855   
      69;    76.4804;          695   
      70;    77.3557;         1024   
      71;    78.2309;         1003   
      72;    79.1062;          546   
      73;    79.9815;          450   
      74;    80.8568;          441   
      75;    81.7320;          465   
      76;    82.6073;          455   
      77;    83.4826;          498   
      78;    84.3579;          547   
      79;    85.2331;          551   
      80;    86.1084;          666   
      81;    86.9837;          846   
      82;    87.8590;          936   
      83;    88.7342;          735   
      84;    89.6095;          686   
      85;    90.4848;          686   
      86;    91.3601;          618   
      87;    92.2353;          574   
      88;    93.1106;          573   
      89;    93.9859;          558   
      90;    94.8612;          569   
      91;    95.7364;          571   
      92;    96.6117;          547   
      93;    97.4870;          579   
      94;    98.3623;          560   
      95;    99.2375;          529   
      96;   100.1128;          559   
      97;   100.9881;          560   
      98;   101.8634;          592   
      99;   102.7386;          557   
     100;   103.6139;          551   
     101;   104.4892;          577   
     102;   105.3645;          621   
     103;   106.2397;          587   
     104;   107.1150;          650   
     105;   107.9903;          638   
     106;   108.8656;          671   
     107;   109.7408;          633   
     108;   110.6161;          639   
     109;   111.4914;          616   
     110;   112.3667;          636   
     111;   113.2419;          584   
     112;   114.1172;          584   
     113;   114.9925;          643   
     114;   115.8678;          594   
     115;   116.7430;          570   
     116;   117.6183;          591   
     117;   118.4936;          555   
     118;   119.3689;          623   
     119;   120.2441;          557   
     120;   121.1194;          596   
     121;   121.9947;          596   
     122;   122.8700;          680   
     123;   123.7452;         2336   
     124;   124.6205;         6941   
     125;   125.4958;         4740   
     126;   126.3711;         1109   
     127;   127.2463;          515   
     128;   128.1216;          562   
     129;   128.9969;          531   
     130;   129.8722;          512   
     131;   130.7474;          549   
     132;   131.6227;          459   
     133;   132.4980;          502   
     134;   133.3733;          509   
     135;   134.2485;          470   
     136;   135.1238;          523   
     137;   135.9991;          495   
     138;   136.8744;          498   
     139;   137.7496;          510   
     140;   138.6249;          488   
     141;   139.5002;          491   
     142;   140.3755;          425   
     143;   141.2507;          472   
     144;   142.1260;          480   
     145;   143.0013;          462   
     146;   143.8766;          456   
     147;   144.7518;          508   
     148;   145.6271;          463   
     149;   146.5024;          476   
     150;   147.3777;          449   
     151;   148.2529;          478   
     152;   149.1282;          505   
     153;   150.0035;          501   
     154;   150.8788;          461   
     155;   151.7540;          504   
     156;   152.6293;          470   
     157;   153.5046;          488   
     158;   154.3799;          486   
     159;   155.2551;          451   
     160;   156.1304;          506   
     161;   157.0057;          475   
     162;   157.8810;          453   
     163;   158.7562;          456   
     164;   159.6315;          492   
     165;   160.5068;          467   
     166;   161.3821;          442   
     167;   162.2573;          436   
     168;   163.1326;          431   
     169;   164.0079;          449   
     170;   164.8832;          438   
     171;   165.7584;          442   
     172;   166.6337;          468   
     173;   167.5090;          400   
     174;   168.3843;          423   
     175;   169.2595;          411   
     176;   170.1348;          484   
     177;   171.0101;          386   
     178;   171.8854;          467   
     179;   172.7606;          427   
     180;   173.6359;          408   
     181;   174.5112;          410   
     182;   175.3865;          442   
     183;   176.2617;          421   
     184;   177.1370;          403   
     185;   178.0123;          376   
     186;   178.8876;          405   
     187;   179.7628;          389   
     188;   180.6381;          399   
     189;   181.5134;          409   
     190;   182.3887;          394   
     191;   183.2639;          400   
     192;   184.1392;          401   
     193;   185.0145;          384   
     194;   185.8898;          423   
     195;   186.7650;          392   
     196;   187.6403;          351   
     197;   188.5156;          397   
     198;   189.3909;          467   
     199;   190.2661;          409   
     200;   191.1414;          392   
     201;   192.0167;          391   
     202;   192.8920;          389   
     203;   193.7672;          397   
     204;   194.6425;          396   
     205;   195.5178;          386   
     206;   196.3931;          372   
     207;   197.2683;          372   
     208;   198.1436;          379   
     209;   199.0189;          355   
     210;   199.8942;          356   
     211;   200.7694;          346   
     212;   201.6447;          364   
     213;   202.5200;          334   
     214;   203.3953;          370   
     215;   204.2705;          364   
     216;   205.1458;          341   
     217;   206.0211;          359   
     218;   206.8964;          337   
     219;   207.7716;          344   
     220;   208.6469;          321   
     221;   209.5222;          348   
     222;   210.3975;          331   
     223;   211.2727;          340   
     224;   212.1480;          340   
     225;   213.0233;          340   
     226;   213.8986;          321   
     227;   214.7738;          322   
     228;   215.6491;          320   
     229;   216.5244;          317   
     230;   217.3997;          339   
     231;   218.2749;          281   
     232;   219.1502;          336   
     233;   220.0255;          299   
     234;   220.9008;          287   
     235;   221.7760;          350   
     236;   222.6513;          278   
     237;   223.5266;          298   
     238;   224.4019;          332   
     239;   225.2771;          305   
     240;   226.1524;          308   
     241;   227.0277;          309   
     242;   227.9030;          276   
     243;   228.7782;          291   
     244;   229.6535;          265   
     245;   230.5288;          279   
     246;   231.4041;          287   
     247;   232.2793;          267   
     248;   233.1546;          304   
     249;   234.0299;          282   
     250;   234.9052;          298   
     251;   235.7804;          258   
     252;   236.6557;          261   
     253;   237.5310;          281   
     254;   238.4063;          287   
     255;   239.2815;          265   
     256;   240.1568;          269   
     257;   241.0321;          325   
     258;   241.9074;          368   
     259;   242.7826;          417   
     260;   243.6579;          348   
     261;   244.5332;          270   
     262;   245.4085;          288   
     263;   246.2837;          297   
     264;   247.1590;          408   
     265;   248.0343;         1248   
     266;   248.9096;         1467   
     267;   249.7848;          584   
     268;   250.6601;          250   
     269;   251.5354;          242   
     270;   252.4107;          245   
     271;   253.2859;          249   
     272;   254.1612;          250   
     273;   255.0365;          261   
     274;   255.9118;          269   
     275;   256.7870;          217   
     276;   257.6623;          223   
     277;   258.5376;          218   
     278;   259.4129;          227   
     279;   260.2881;          231   
     280;   261.1634;          228   
     281;   262.0387;          226   
     282;   262.9140;          221   
     283;   263.7892;          206   
     284;   264.6645;          216   
     285;   265.5398;          204   
     286;   266.4151;          193   
     287;   267.2903;          204   
     288;   268.1656;          182   
     289;   269.0409;          206   
     290;   269.9162;          207   
     291;   270.7914;          179   
     292;   271.6667;          209   
     293;   272.5420;          191   
     294;   273.4173;          220   
     295;   274.2925;          230   
     296;   275.1678;          219   
     297;   276.0431;          194   
     298;   276.9184;          204   
     299;   277.7936;          194   
     300;   278.6689;          193   
     301;   279.5442;          211   
     302;   280.4195;          211   
     303;   281.2947;          206   
     304;   282.1700;          182   
     305;   283.0453;          173   
     306;   283.9206;          168   
     307;   284.7958;          164   
     308;   285.6711;          170   
     309;   286.5464;          195   
     310;   287.4217;          194   
     311;   288.2969;          169   
     312;   289.1722;          174   
     313;   290.0475;          178   
     314;   290.9228;          165   
     315;   291.7980;          170   
     316;   292.6733;          193   
     317;   293.5486;          169   
     318;   294.4239;          181   
     319;   295.2991;          175   
     320;   296.1744;          189   
     321;   297.0497;          184   
     322;   297.9250;          189   
     323;   298.8002;          217   
     324;   299.6755;          272   
     325;   300.5508;          233   
     326;   301.4261;          178   
     327;   302.3013;          155   
     328;   303.1766;          177   
     329;   304.0519;          164   
     330;   304.9272;          172   
     331;   305.8024;          162   
     332;   306.6777;          142   
     333;   307.5530;          169   
     334;   308.4283;          182   
     335;   309.3035;          180   
     336;   310.1788;          150   
     337;   311.0541;          146   
     338;   311.9294;          137   
     339;   312.8046;          121   
     340;   313.6799;          143   
     341;   314.5552;          158   
     342;   315.4305;          160   
     343;   316.3057;          151   
     344;   317.1810;          153   
     345;   318.0563;          144   
     346;   318.9316;          151   
     347;   319.8068;          158   
     348;   320.6821;          159   
     349;   321.5574;          139   
     350;   322.4327;          156   
     351;   323.3079;          174   
     352;   324.1832;          131   
     353;   325.0585;          147   
     354;   325.9338;          127   
     355;   326.8090;          158   
     356;   327.6843;          138   
     357;   328.5596;          135   
     358;   329.4349;          138   
     359;   330.3101;          141   
     360;   331.1854;          151   
     361;   332.0607;          116   
     362;   332.9360;          155   
     363;   333.8112;          145   
     364;   334.6865;          159   
     365;   335.5618;          136   
     366;   336.4371;          129   
     367;   337.3123;          151   
     368;   338.1876;          147   
     369;   339.0629;          136   
     370;   339.9382;          158   
     371;   340.8134;          141   
     372;   341.6887;          156   
     373;   342.5640;          168   
     374;   343.4393;          150   
     375;   344.3145;          150   
     376;   345.1898;          131   
     377;   346.0651;          140   
     378;   346.9404;          218   
     379;   347.8156;         1337   
     380;   348.6909;         3420   
     381;   349.5662;         2493   
     382;   350.4415;          533   
     383;   351.3167;          156   
     384;   352.1920;          126   
     385;   353.0673;          102   
     386;   353.9426;          108   
     387;   354.8178;          116   
     388;   355.6931;          151   
     389;   356.5684;          207   
     390;   357.4437;          165   
     391;   358.3189;          115   
     392;   359.1942;          106   
     393;   360.0695;          108   
     394;   360.9448;          116   
     395;   361.8200;          114   
     396;   362.6953;          116   
     397;   363.5706;          103   
     398;   364.4459;          109   
     399;   365.3211;          126   
     400;   366.1964;          107   
     401;   367.0717;          108   
     402;   367.9470;          102   
     403;   368.8222;          111   
     404;   369.6975;          112   
     405;   370.5728;          103   
     406;   371.4481;          144   
     407;   372.3233;          211   
     408;   373.1986;          152   
     409;   374.0739;          143   
     410;   374.9492;           94   
     411;   375.8244;          104   
     412;   376.6997;          108   
     413;   377.5750;          109   
     414;   378.4503;          108   
     415;   379.3255;          101   
     416;   380.2008;          108   
     417;   381.0761;           97   
     418;   381.9514;           94   
     419;   382.8266;          116   
     420;   383.7019;          117   
     421;   384.5772;          109   
     422;   385.4525;           81   
     423;   386.3277;           92   
     424;   387.2030;           98   
     425;   388.0783;           86   
     426;   388.9536;          101   
     427;   389.8288;          123   
     428;   390.7041;           92   
     429;   391.5794;           97   
     430;   392.4547;           96   
     431;   393.3299;           88   
     432;   394.2052;           96   
     433;   395.0805;           98   
     434;   395.9558;          110   
     435;   396.8310;           96   
     436;   397.7063;          116   
     437;   398.5816;           99   
     438;   399.4569;           96   
     439;   400.3321;           99   
     440;   401.2074;           99   
     441;   402.0827;           87   
     442;   402.9580;          104   
     443;   403.8332;           93   
     444;   404.7085;           83   
     445;   405.5838;           98   
     446;   406.4591;          107   
     447;   407.3343;           88   
     448;   408.2096;           81   
     449;   409.0849;           93   
     450;   409.9602;          102   
     451;   410.8354;           95   
     452;   411.7107;          109   
     453;   412.5860;           89   
     454;   413.4613;          100   
     455;   414.3365;          116   
     456;   415.2118;          233   
     457;   416.0871;          324   
     458;   416.9624;          259   
     459;   417.8376;          109   
     460;   418.7129;          105   
     461;   419.5882;           82   
     462;   420.4635;           90   
     463;   421.3387;           91   
     464;   422.2140;          103   
     465;   423.0893;           81   
     466;   423.9646;           79   
     467;   424.8398;          105   
     468;   425.7151;           83   
     469;   426.5904;           83   
     470;   427.4657;           89   
     471;   428.3409;           99   
     472;   429.2162;           73   
     473;   430.0915;           77   
     474;   430.9668;          105   
     475;   431.8420;          101   
     476;   432.7173;           86   
     477;   433.5926;           85   
     478;   434.4679;           84   
     479;   435.3431;           89   
     480;   436.2184;           97   
     481;   437.0937;           84   
     482;   437.9690;           83   
     483;   438.8442;           97   
     484;   439.7195;           71   
     485;   440.5948;           94   
     486;   441.4701;           85   
     487;   442.3453;           76   
     488;   443.2206;           96   
     489;   444.0959;          110   
     490;   444.9712;           86   
     491;   445.8464;           93   
     492;   446.7217;           76   
     493;   447.5970;          122   
     494;   448.4723;          236   
     495;   449.3475;          375   
     496;   450.2228;          221   
     497;   451.0981;          106   
     498;   451.9734;           94   
     499;   452.8486;           87   
     500;   453.7239;           81   
     501;   454.5992;           85   
     502;   455.4745;           97   
     503;   456.3497;           86   
     504;   457.2250;           87   
     505;   458.1003;           72   
     506;   458.9756;           95   
     507;   459.8508;           71   
     508;   460.7261;           83   
     509;   461.6014;           83   
     510;   462.4767;           78   
     511;   463.3519;           86   
     512;   464.2272;          103   
     513;   465.1025;           89   
     514;   465.9778;          111   
     515;   466.8530;           78   
     516;   467.7283;           76   
     517;   468.6036;          108   
     518;   469.4789;           78   
     519;   470.3541;           84   
     520;   471.2294;           94   
     521;   472.1047;           74   
     522;   472.9800;           80   
     523;   473.8552;           72   
     524;   474.7305;           83   
     525;   475.6058;           64   
     526;   476.4811;           94   
     527;   477.3563;           98   
     528;   478.2316;           96   
     529;   479.1069;           89   
     530;   479.9822;           72   
     531;   480.8574;           90   
     532;   481.7327;           88   
     533;   482.6080;           78   
     534;   483.4833;           79   
     535;   484.3585;           75   
     536;   485.2338;           85   
     537;   486.1091;           87   
     538;   486.9844;           88   
     539;   487.8596;           85   
     540;   488.7349;           96   
     541;   489.6102;           78   
     542;   490.4855;           77   
     543;   491.3607;           58   
     544;   492.2360;           75   
     545;   493.1113;          102   
     546;   493.9866;          116   
     547;   494.8618;          111   
     548;   495.7371;           91   
     549;   496.6124;           94   
     550;   497.4877;           81   
     551;   498.3629;           84   
     552;   499.2382;           78   
     553;   500.1135;           78   
     554;   500.9888;           81   
     555;   501.8640;           82   
     556;   502.7393;           86   
     557;   503.6146;           67   
     558;   504.4899;           76   
     559;   505.3651;           87   
     560;   506.2404;          101   
     561;   507.1157;           82   
     562;   507.9910;           68   
     563;   508.8662;           96   
     564;   509.7415;           89   
     565;   510.6168;           86   
     566;   511.4921;           70   
     567;   512.3673;           84   
     568;   513.2426;           71   
     569;   514.1179;           67   
     570;   514.9932;          100   
     571;   515.8684;          121   
     572;   516.7437;          160   
     573;   517.6190;          112   
     574;   518.4943;          104   
     575;   519.3695;           78   
     576;   520.2448;           80   
     577;   521.1201;           67   
     578;   521.9954;           74   
     579;   522.8706;           69   
     580;   523.7459;           70   
     581;   524.6212;           77   
     582;   525.4965;           80   
     583;   526.3717;           92   
     584;   527.2470;           79   
     585;   528.1223;           80   
     586;   528.9976;           82   
     587;   529.8728;           71   
     588;   530.7481;           69   
     589;   531.6234;           71   
     590;   532.4987;           65   
     591;   533.3739;           70   
     592;   534.2492;           68   
     593;   535.1245;           82   
     594;   535.9998;           71   
     595;   536.8750;           62   
     596;   537.7503;           85   
     597;   538.6256;           77   
     598;   539.5009;           81   
     599;   540.3761;           78   
     600;   541.2514;           69   
     601;   542.1267;           75   
     602;   543.0020;           63   
     603;   543.8772;           72   
     604;   544.7525;           71   
     605;   545.6278;           67   
     606;   546.5031;           62   
     607;   547.3783;           72   
     608;   548.2536;           87   
     609;   549.1289;           82   
     610;   550.0042;           66   
     611;   550.8794;           57   
     612;   551.7547;           79   
     613;   552.6300;           75   
     614;   553.5053;           72   
     615;   554.3805;           62   
     616;   555.2558;           70   
     617;   556.1311;           93   
     618;   557.0064;           76   
     619;   557.8816;           73   
     620;   558.7569;           68   
     621;   559.6322;           84   
     622;   560.5075;           82   
     623;   561.3827;           59   
     624;   562.2580;           83   
     625;   563.1333;           79   
     626;   564.0086;           90   
     627;   564.8838;           85   
     628;   565.7591;           55   
     629;   566.6344;           78   
     630;   567.5097;           58   
     631;   568.3849;           76   
     632;   569.2602;           77   
     633;   570.1355;          108   
     634;   571.0108;           96   
     635;   571.8860;           79   
     636;   572.7613;          105   
     637;   573.6366;           57   
     638;   574.5119;           78   
     639;   575.3871;           59   
     640;   576.2624;           68   
     641;   577.1377;           76   
     642;   578.0130;           67   
     643;   578.8882;           67   
     644;   579.7635;           66   
     645;   580.6388;           80   
     646;   581.5141;           61   
     647;   582.3893;           80   
     648;   583.2646;           64   
     649;   584.1399;           68   
     650;   585.0152;           65   
     651;   585.8904;           62   
     652;   586.7657;           60   
     653;   587.6410;           52   
     654;   588.5163;          115   
     655;   589.3915;          128   
     656;   590.2668;          129   
     657;   591.1421;           66   
     658;   592.0174;           90   
     659;   592.8926;          113   
     660;   593.7679;           84   
     661;   594.6432;           66   
     662;   595.5185;           48   
     663;   596.3937;           59   
     664;   597.2690;           66   
     665;   598.1443;           68   
     666;   599.0196;           75   
     667;   599.8948;           67   
     668;   600.7701;           58   
     669;   601.6454;           73   
     670;   602.5207;           68   
     671;   603.3959;           69   
     672;   604.2712;           65   
     673;   605.1465;           55   
     674;   606.0218;           64   
     675;   606.8970;           76   
     676;   607.7723;           55   
     677;   608.6476;           50   
     678;   609.5229;           55   
     679;   610.3981;           62   
     680;   611.2734;           60   
     681;   612.1487;           51   
     682;   613.0240;           41   
     683;   613.8992;           65   
     684;   614.7745;          104   
     685;   615.6498;          164   
     686;   616.5251;          125   
     687;   617.4003;           70   
     688;   618.2756;           66   
     689;   619.1509;           48   
     690;   620.0262;           58   
     691;   620.9014;           42   
     692;   621.7767;           53   
     693;   622.6520;           51   
     694;   623.5273;           66   
     695;   624.4025;           63   
     696;   625.2778;           69   
     697;   626.1531;           64   
     698;   627.0284;           60   
     699;   627.9036;           57   
     700;   628.7789;           68   
     701;   629.6542;           51   
     702;   630.5295;           47   
     703;   631.4047;           60   
     704;   632.2800;           53   
     705;   633.1553;           65   
     706;   634.0306;           58   
     707;   634.9058;           53   
     708;   635.7811;           58   
     709;   636.6564;           44   
     710;   637.5317;           73   
     711;   638.4069;           57   
     712;   639.2822;           50   
     713;   640.1575;           50   
     714;   641.0328;           61   
     715;   641.9080;           61   
     716;   642.7833;           63   
     717;   643.6586;           62   
     718;   644.5339;           73   
     719;   645.4091;           72   
     720;   646.2844;           62   
     721;   647.1597;           63   
     722;   648.0350;           59   
     723;   648.9102;           61   
     724;   649.7855;           67   
     725;   650.6608;           58   
     726;   651.5361;           53   
     727;   652.4113;           62   
     728;   653.2866;           48   
     729;   654.1619;           56   
     730;   655.0372;           69   
     731;   655.9124;           66   
     732;   656.7877;           51   
     733;   657.6630;           59   
     734;   658.5383;           55   
     735;   659.4135;           60   
     736;   660.2888;           51   
     737;   661.1641;           53   
     738;   662.0394;           67   
     739;   662.9146;           58   
     740;   663.7899;           74   
     741;   664.6652;           54   
     742;   665.5405;           46   
     743;   666.4157;           63   
     744;   667.2910;           72   
     745;   668.1663;           99   
     746;   669.0416;          118   
     747;   669.9168;           65   
     748;   670.7921;           42   
     749;   671.6674;           50   
     750;   672.5427;           69   
     751;   673.4179;           54   
     752;   674.2932;           63   
     753;   675.1685;           52   
     754;   676.0438;           61   
     755;   676.9190;           53   
     756;   677.7943;           61   
     757;   678.6696;           57   
     758;   679.5449;           51   
     759;   680.4201;           49   
     760;   681.2954;           44   
     761;   682.1707;           72   
     762;   683.0460;           48   
     763;   683.9212;           60   
     764;   684.7965;           86   
     765;   685.6718;           58   
     766;   686.5471;           75   
     767;   687.4223;           44   
     768;   688.2976;           43   
     769;   689.1729;           41   
     770;   690.0482;           43   
     771;   690.9234;           59   
     772;   691.7987;           33   
     773;   692.6740;           45   
     774;   693.5493;           53   
     775;   694.4245;           75   
     776;   695.2998;          104   
     777;   696.1751;          100   
     778;   697.0504;           71   
     779;   697.9256;           50   
     780;   698.8009;           56   
     781;   699.6762;           45   
     782;   700.5515;           49   
     783;   701.4267;           52   
     784;   702.3020;           49   
     785;   703.1773;           49   
     786;   704.0526;           48   
     787;   704.9278;           57   
     788;   705.8031;           46   
     789;   706.6784;           38   
     790;   707.5537;           60   
     791;   708.4289;           45   
     792;   709.3042;           53   
     793;   710.1795;           54   
     794;   711.0548;           56   
     795;   711.9300;           43   
     796;   712.8053;           47   
     797;   713.6806;           54   
     798;   714.5559;           41   
     799;   715.4311;           56   
     800;   716.3064;           44   
     801;   717.1817;           59   
     802;   718.0570;           41   
     803;   718.9322;           44   
     804;   719.8075;           53   
     805;   720.6828;           55   
     806;   721.5581;           52   
     807;   722.4333;           43   
     808;   723.3086;           47   
     809;   724.1839;           42   
     810;   725.0592;           57   
     811;   725.9344;           53   
     812;   726.8097;           58   
     813;   727.6850;           76   
     814;   728.5603;           65   
     815;   729.4355;           46   
     816;   730.3108;           50   
     817;   731.1861;           63   
     818;   732.0614;           52   
     819;   732.9366;           42   
     820;   733.8119;           63   
     821;   734.6872;           81   
     822;   735.5625;           67   
     823;   736.4377;           48   
     824;   737.3130;           43   
     825;   738.1883;           41   
     826;   739.0636;           54   
     827;   739.9388;           55   
     828;   740.8141;           51   
     829;   741.6894;           63   
     830;   742.5647;           46   
     831;   743.4399;           55   
     832;   744.3152;           54   
     833;   745.1905;           49   
     834;   746.0658;           60   
     835;   746.9410;           45   
     836;   747.8163;           35   
     837;   748.6916;           37   
     838;   749.5669;           49   
     839;   750.4421;           53   
     840;   751.3174;           55   
     841;   752.1927;           53   
     842;   753.0680;           40   
     843;   753.9432;           48   
     844;   754.8185;           49   
     845;   755.6938;           42   
     846;   756.5691;           58   
     847;   757.4443;           47   
     848;   758.3196;           41   
     849;   759.1949;           44   
     850;   760.0702;           52   
     851;   760.9454;           54   
     852;   761.8207;           39   
     853;   762.6960;           56   
     854;   763.5713;           49   
     855;   764.4465;           65   
     856;   765.3218;           53   
     857;   766.1971;           36   
     858;   767.0724;           53   
     859;   767.9476;           53   
     860;   768.8229;           46   
     861;   769.6982;           48   
     862;   770.5735;           52   
     863;   771.4487;           63   
     864;   772.3240;           58   
     865;   773.1993;           51   
     866;   774.0746;           52   
     867;   774.9498;           48   
     868;   775.8251;           57   
     869;   776.7004;           63   
     870;   777.5757;           51   
     871;   778.4509;           46   
     872;   779.3262;           48   
     873;   780.2015;           51   
     874;   781.0768;           45   
     875;   781.9520;           41   
     876;   782.8273;           49   
     877;   783.7026;           45   
     878;   784.5779;           91   
     879;   785.4531;          386   
     880;   786.3284;          757   
     881;   787.2037;          549   
     882;   788.0790;          176   
     883;   788.9542;           44   
     884;   789.8295;           44   
     885;   790.7048;           43   
     886;   791.5801;           48   
     887;   792.4553;           48   
     888;   793.3306;           40   
     889;   794.2059;           49   
     890;   795.0812;           41   
     891;   795.9564;           44   
     892;   796.8317;           42   
     893;   797.7070;           39   
     894;   798.5823;           38   
     895;   799.4575;           37   
     896;   800.3328;           44   
     897;   801.2081;           47   
     898;   802.0834;           48   
     899;   802.9586;           58   
     900;   803.8339;           31   
     901;   804.7092;           49   
     902;   805.5845;           49   
     903;   806.4597;           50   
     904;   807.3350;           36   
     905;   808.2103;           39   
     906;   809.0856;           37   
     907;   809.9608;           46   
     908;   810.8361;           38   
     909;   811.7114;           38   
     910;   812.5867;           39   
     911;   813.4619;           50   
     912;   814.3372;           42   
     913;   815.2125;           48   
     914;   816.0878;           47   
     915;   816.9631;           50   
     916;   817.8383;           52   
     917;   818.7136;           52   
     918;   819.5889;           43   
     919;   820.4642;           34   
     920;   821.3394;           32   
     921;   822.2147;           41   
     922;   823.0900;           41   
     923;   823.9653;           43   
     924;   824.8405;           36   
     925;   825.7158;           37   
     926;   826.5911;           36   
     927;   827.4664;           41   
     928;   828.3416;           48   
     929;   829.2169;           42   
     930;   830.0922;           46   
     931;   830.9675;           39   
     932;   831.8427;           35   
     933;   832.7180;           40   
     934;   833.5933;           37   
     935;   834.4686;           50   
     936;   835.3438;           35   
     937;   836.2191;           38   
     938;   837.0944;           42   
     939;   837.9697;           35   
     940;   838.8449;           46   
     941;   839.7202;           38   
     942;   840.5955;           47   
     943;   841.4708;           36   
     944;   842.3460;           37   
     945;   843.2213;           36   
     946;   844.0966;           33   
     947;   844.9719;           47   
     948;   845.8471;           44   
     949;   846.7224;           39   
     950;   847.5977;           35   
     951;   848.4730;           30   
     952;   849.3482;           45   
     953;   850.2235;           58   
     954;   851.0988;           44   
     955;   851.9741;           39   
     956;   852.8493;           34   
     957;   853.7246;           39   
     958;   854.5999;           40   
     959;   855.4752;           36   
     960;   856.3504;           51   
     961;   857.2257;           40   
     962;   858.1010;           31   
     963;   858.9763;           50   
     964;   859.8515;           54   
     965;   860.7268;           51   
     966;   861.6021;           37   
     967;   862.4774;           44   
     968;   863.3526;           38   
     969;   864.2279;           50   
     970;   865.1032;           46   
     971;   865.9785;           41   
     972;   866.8537;           41   
     973;   867.7290;           49   
     974;   868.6043;           58   
     975;   869.4796;           52   
     976;   870.3548;           41   
     977;   871.2301;           37   
     978;   872.1054;           47   
     979;   872.9807;           43   
     980;   873.8559;           83   
     981;   874.7312;          176   
     982;   875.6065;          233   
     983;   876.4818;          163   
     984;   877.3570;           70   
     985;   878.2323;           36   
     986;   879.1076;           37   
     987;   879.9829;           48   
     988;   880.8581;           42   
     989;   881.7334;           58   
     990;   882.6087;           44   
     991;   883.4840;           44   
     992;   884.3592;           36   
     993;   885.2345;           45   
     994;   886.1098;           39   
     995;   886.9851;           34   
     996;   887.8603;           38   
     997;   888.7356;           39   
     998;   889.6109;           37   
     999;   890.4862;           41   
    1000;   891.3614;           34   
    1001;   892.2367;           40   
    1002;   893.1120;           28   
    1003;   893.9873;           24   
    1004;   894.8625;           40   
    1005;   895.7378;           43   
    1006;   896.6131;           40   
    1007;   897.4884;           36   
    1008;   898.3636;           39   
    1009;   899.2389;           43   
    1010;   900.1142;           30   
    1011;   900.9895;           31   
    1012;   901.8647;           38   
    1013;   902.7400;           33   
    1014;   903.6153;           47   
    1015;   904.4906;           45   
    1016;   905.3658;           26   
    1017;   906.2411;           36   
    1018;   907.1164;           41   
    1019;   907.9917;           42   
    1020;   908.8669;           39   
    1021;   909.7422;           38   
    1022;   910.6175;           33   
    1023;   911.4928;           40   
    1024;   912.3680;           28   
    1025;   913.2433;           39   
    1026;   914.1186;           31   
    1027;   914.9939;           29   
    1028;   915.8691;           28   
    1029;   916.7444;           29   
    1030;   917.6197;           38   
    1031;   918.4950;           49   
    1032;   919.3702;           86   
    1033;   920.2455;           72   
    1034;   921.1208;           54   
    1035;   921.9961;           32   
    1036;   922.8713;           25   
    1037;   923.7466;           28   
    1038;   924.6219;           30   
    1039;   925.4972;           20   
    1040;   926.3724;           37   
    1041;   927.2477;           33   
    1042;   928.1230;           52   
    1043;   928.9983;           47   
    1044;   929.8735;           26   
    1045;   930.7488;           31   
    1046;   931.6241;           34   
    1047;   932.4994;           22   
    1048;   933.3746;           29   
    1049;   934.2499;           38   
    1050;   935.1252;           37   
    1051;   936.0005;           41   
    1052;   936.8757;           37   
    1053;   937.7510;           33   
    1054;   938.6263;           30   
    1055;   939.5016;           30   
    1056;   940.3768;           31   
    1057;   941.2521;           36   
    1058;   942.1274;           34   
    1059;   943.0027;           27   
    1060;   943.8779;           36   
    1061;   944.7532;           29   
    1062;   945.6285;           35   
    1063;   946.5038;           24   
    1064;   947.3790;           18   
    1065;   948.2543;           22   
    1066;   949.1296;           26   
    1067;   950.0049;           29   
    1068;   950.8801;           28   
    1069;   951.7554;           30   
    1070;   952.6307;           22   
    1071;   953.5060;           25   
    1072;   954.3812;           30   
    1073;   955.2565;           29   
    1074;   956.1318;           30   
    1075;   957.0071;           34   
    1076;   957.8823;           28   
    1077;   958.7576;           31   
    1078;   959.6329;           42   
    1079;   960.5082;           29   
    1080;   961.3834;           27   
    1081;   962.2587;           26   
    1082;   963.1340;           30   
    1083;   964.0093;           24   
    1084;   964.8845;           26   
    1085;   965.7598;           26   
    1086;   966.6351;           23   
    1087;   967.5104;           23   
    1088;   968.3856;           23   
    1089;   969.2609;           28   
    1090;   970.1362;           35   
    1091;   971.0115;          118   
    1092;   971.8867;          396   
    1093;   972.7620;          663   
    1094;   973.6373;          499   
    1095;   974.5126;          141   
    1096;   975.3878;           43   
    1097;   976.2631;           36   
    1098;   977.1384;           46   
    1099;   978.0137;           58   
    1100;   978.8889;           38   
    1101;   979.7642;           20   
    1102;   980.6395;           18   
    1103;   981.5148;           27   
    1104;   982.3900;           21   
    1105;   983.2653;           34   
    1106;   984.1406;           32   
    1107;   985.0159;           36   
    1108;   985.8911;           17   
    1109;   986.7664;           25   
    1110;   987.6417;           23   
    1111;   988.5170;           25   
    1112;   989.3922;           22   
    1113;   990.2675;           25   
    1114;   991.1428;           27   
    1115;   992.0181;           30   
    1116;   992.8933;           21   
    1117;   993.7686;           31   
    1118;   994.6439;           28   
    1119;   995.5192;           23   
    1120;   996.3944;           23   
    1121;   997.2697;           21   
    1122;   998.1450;           21   
    1123;   999.0203;           28   
    1124;   999.8955;           25   
    1125;  1000.7708;           23   
    1126;  1001.6461;           31   
    1127;  1002.5214;           25   
    1128;  1003.3966;           25   
    1129;  1004.2719;           29   
    1130;  1005.1472;           17   
    1131;  1006.0225;           21   
    1132;  1006.8977;           20   
    1133;  1007.7730;           23   
    1134;  1008.6483;           23   
    1135;  1009.5236;           21   
    1136;  1010.3988;           24   
    1137;  1011.2741;           29   
    1138;  1012.1494;           27   
    1139;  1013.0247;           35   
    1140;  1013.8999;           31   
    1141;  1014.7752;           49   
    1142;  1015.6505;           41   
    1143;  1016.5258;           25   
    1144;  1017.4010;           32   
    1145;  1018.2763;           24   
    1146;  1019.1516;           15   
    1147;  1020.0269;           23   
    1148;  1020.9021;           25   
    1149;  1021.7774;           24   
    1150;  1022.6527;           12   
    1151;  1023.5280;           18   
    1152;  1024.4032;           29   
    1153;  1025.2785;           29   
    1154;  1026.1538;           16   
    1155;  1027.0291;           17   
    1156;  1027.9043;           19   
    1157;  1028.7796;           24   
    1158;  1029.6549;           26   
    1159;  1030.5302;           17   
    1160;  1031.4054;           19   
    1161;  1032.2807;           29   
    1162;  1033.1560;           16   
    1163;  1034.0313;           26   
    1164;  1034.9065;           33   
    1165;  1035.7818;           25   
    1166;  1036.6571;           24   
    1167;  1037.5324;           17   
    1168;  1038.4076;           19   
    1169;  1039.2829;           26   
    1170;  1040.1582;           24   
    1171;  1041.0335;           16   
    1172;  1041.9087;           21   
    1173;  1042.7840;           17   
    1174;  1043.6593;           23   
    1175;  1044.5346;           21   
    1176;  1045.4098;           19   
    1177;  1046.2851;           16   
    1178;  1047.1604;           19   
    1179;  1048.0357;           20   
    1180;  1048.9109;           27   
    1181;  1049.7862;           19   
    1182;  1050.6615;           20   
    1183;  1051.5368;           19   
    1184;  1052.4120;           21   
    1185;  1053.2873;           23   
    1186;  1054.1626;           21   
    1187;  1055.0379;           21   
    1188;  1055.9131;           20   
    1189;  1056.7884;           19   
    1190;  1057.6637;           29   
    1191;  1058.5390;           22   
    1192;  1059.4142;           22   
    1193;  1060.2895;           18   
    1194;  1061.1648;           15   
    1195;  1062.0401;           22   
    1196;  1062.9153;           27   
    1197;  1063.7906;           13   
    1198;  1064.6659;           19   
    1199;  1065.5412;           16   
    1200;  1066.4164;           27   
    1201;  1067.2917;           21   
    1202;  1068.1670;           21   
    1203;  1069.0423;           19   
    1204;  1069.9175;           24   
    1205;  1070.7928;           19   
    1206;  1071.6681;           27   
    1207;  1072.5434;           22   
    1208;  1073.4186;           28   
    1209;  1074.2939;           24   
    1210;  1075.1692;           29   
    1211;  1076.0445;           17   
    1212;  1076.9197;           21   
    1213;  1077.7950;           21   
    1214;  1078.6703;           21   
    1215;  1079.5456;           21   
    1216;  1080.4208;           24   
    1217;  1081.2961;           22   
    1218;  1082.1714;           19   
    1219;  1083.0467;           19   
    1220;  1083.9219;           19   
    1221;  1084.7972;           21   
    1222;  1085.6725;           17   
    1223;  1086.5478;           25   
    1224;  1087.4230;           23   
    1225;  1088.2983;           27   
    1226;  1089.1736;           15   
    1227;  1090.0489;           33   
    1228;  1090.9241;           29   
    1229;  1091.7994;           25   
    1230;  1092.6747;           31   
    1231;  1093.5500;           86   
    1232;  1094.4252;          278   
    1233;  1095.3005;          400   
    1234;  1096.1758;          318   
    1235;  1097.0511;          114   
    1236;  1097.9263;           38   
    1237;  1098.8016;           74   
    1238;  1099.6769;           89   
    1239;  1100.5522;           45   
    1240;  1101.4274;           29   
    1241;  1102.3027;           28   
    1242;  1103.1780;           29   
    1243;  1104.0533;           21   
    1244;  1104.9285;           25   
    1245;  1105.8038;           20   
    1246;  1106.6791;           17   
    1247;  1107.5544;           21   
    1248;  1108.4296;           18   
    1249;  1109.3049;           14   
    1250;  1110.1802;           21   
    1251;  1111.0555;           22   
    1252;  1111.9307;           18   
    1253;  1112.8060;           20   
    1254;  1113.6813;           24   
    1255;  1114.5566;           34   
    1256;  1115.4318;           18   
    1257;  1116.3071;           20   
    1258;  1117.1824;           28   
    1259;  1118.0577;           36   
    1260;  1118.9329;           39   
    1261;  1119.8082;          113   
    1262;  1120.6835;          294   
    1263;  1121.5588;          517   
    1264;  1122.4340;          404   
    1265;  1123.3093;          128   
    1266;  1124.1846;           43   
    1267;  1125.0599;           14   
    1268;  1125.9351;           18   
    1269;  1126.8104;           15   
    1270;  1127.6857;           22   
    1271;  1128.5610;           35   
    1272;  1129.4362;           40   
    1273;  1130.3115;           52   
    1274;  1131.1868;           35   
    1275;  1132.0621;           21   
    1276;  1132.9373;           22   
    1277;  1133.8126;           25   
    1278;  1134.6879;           26   
    1279;  1135.5632;           24   
    1280;  1136.4384;           28   
    1281;  1137.3137;           25   
    1282;  1138.1890;           20   
    1283;  1139.0643;           21   
    1284;  1139.9395;           23   
    1285;  1140.8148;           27   
    1286;  1141.6901;           33   
    1287;  1142.5654;           17   
    1288;  1143.4406;           29   
    1289;  1144.3159;           16   
    1290;  1145.1912;           22   
    1291;  1146.0665;           31   
    1292;  1146.9417;           24   
    1293;  1147.8170;           22   
    1294;  1148.6923;           26   
    1295;  1149.5676;           21   
    1296;  1150.4428;           19   
    1297;  1151.3181;           24   
    1298;  1152.1934;           24   
    1299;  1153.0687;           27   
    1300;  1153.9439;           17   
    1301;  1154.8192;           25   
    1302;  1155.6945;           19   
    1303;  1156.5698;           21   
    1304;  1157.4450;           27   
    1305;  1158.3203;           16   
    1306;  1159.1956;           22   
    1307;  1160.0709;           15   
    1308;  1160.9461;           23   
    1309;  1161.8214;           16   
    1310;  1162.6967;           17   
    1311;  1163.5720;           18   
    1312;  1164.4472;           22   
    1313;  1165.3225;           29   
    1314;  1166.1978;           23   
    1315;  1167.0731;           18   
    1316;  1167.9483;           29   
    1317;  1168.8236;           21   
    1318;  1169.6989;           28   
    1319;  1170.5742;           19   
    1320;  1171.4494;           29   
    1321;  1172.3247;           24   
    1322;  1173.2000;           17   
    1323;  1174.0753;           23   
    1324;  1174.9505;           31   
    1325;  1175.8258;           19   
    1326;  1176.7011;           25   
    1327;  1177.5764;           28   
    1328;  1178.4516;           20   
    1329;  1179.3269;           29   
    1330;  1180.2022;           25   
    1331;  1181.0775;           26   
    1332;  1181.9527;           22   
    1333;  1182.8280;           24   
    1334;  1183.7033;           25   
    1335;  1184.5786;           34   
    1336;  1185.4538;           19   
    1337;  1186.3291;           24   
    1338;  1187.2044;           20   
    1339;  1188.0797;           20   
    1340;  1188.9549;           23   
    1341;  1189.8302;           23   
    1342;  1190.7055;           18   
    1343;  1191.5808;           24   
    1344;  1192.4560;           29   
    1345;  1193.3313;           19   
    1346;  1194.2066;           34   
    1347;  1195.0819;           26   
    1348;  1195.9571;           24   
    1349;  1196.8324;           22   
    1350;  1197.7077;           27   
    1351;  1198.5830;           29   
    1352;  1199.4582;           26   
    1353;  1200.3335;           20   
    1354;  1201.2088;           18   
    1355;  1202.0841;           35   
    1356;  1202.9593;           20   
    1357;  1203.8346;           19   
    1358;  1204.7099;           21   
    1359;  1205.5852;           27   
    1360;  1206.4604;           19   
    1361;  1207.3357;           20   
    1362;  1208.2110;           19   
    1363;  1209.0863;           31   
    1364;  1209.9615;           23   
    1365;  1210.8368;           18   
    1366;  1211.7121;           18   
    1367;  1212.5874;           20   
    1368;  1213.4626;           26   
    1369;  1214.3379;           22   
    1370;  1215.2132;           25   
    1371;  1216.0885;           16   
    1372;  1216.9637;           24   
    1373;  1217.8390;           19   
    1374;  1218.7143;           25   
    1375;  1219.5896;           31   
    1376;  1220.4648;           23   
    1377;  1221.3401;           38   
    1378;  1222.2154;           44   
    1379;  1223.0907;           76   
    1380;  1223.9659;           62   
    1381;  1224.8412;           28   
    1382;  1225.7165;           18   
    1383;  1226.5918;           19   
    1384;  1227.4670;           30   
    1385;  1228.3423;           23   
    1386;  1229.2176;           19   
    1387;  1230.0929;           18   
    1388;  1230.9681;           16   
    1389;  1231.8434;           24   
    1390;  1232.7187;           17   
    1391;  1233.5940;           25   
    1392;  1234.4692;           21   
    1393;  1235.3445;           19   
    1394;  1236.2198;           13   
    1395;  1237.0951;           23   
    1396;  1237.9703;           20   
    1397;  1238.8456;           20   
    1398;  1239.7209;           16   
    1399;  1240.5962;           24   
    1400;  1241.4714;           20   
    1401;  1242.3467;           18   
    1402;  1243.2220;           22   
    1403;  1244.0973;           15   
    1404;  1244.9725;           17   
    1405;  1245.8478;           16   
    1406;  1246.7231;           32   
    1407;  1247.5984;           22   
    1408;  1248.4736;           38   
    1409;  1249.3489;           25   
    1410;  1250.2242;           18   
    1411;  1251.0995;           25   
    1412;  1251.9747;           16   
    1413;  1252.8500;           13   
    1414;  1253.7253;           19   
    1415;  1254.6006;           17   
    1416;  1255.4758;           13   
    1417;  1256.3511;           19   
    1418;  1257.2264;           18   
    1419;  1258.1017;           13   
    1420;  1258.9769;           15   
    1421;  1259.8522;           26   
    1422;  1260.7275;           24   
    1423;  1261.6028;           15   
    1424;  1262.4780;           10   
    1425;  1263.3533;           15   
    1426;  1264.2286;           10   
    1427;  1265.1039;           11   
    1428;  1265.9791;           19   
    1429;  1266.8544;           13   
    1430;  1267.7297;           13   
    1431;  1268.6050;           11   
    1432;  1269.4802;           15   
    1433;  1270.3555;           22   
    1434;  1271.2308;           12   
    1435;  1272.1061;           18   
    1436;  1272.9813;           13   
    1437;  1273.8566;           13   
    1438;  1274.7319;           14   
    1439;  1275.6072;           16   
    1440;  1276.4824;           17   
    1441;  1277.3577;            9   
    1442;  1278.2330;           17   
    1443;  1279.1083;           15   
    1444;  1279.9835;           16   
    1445;  1280.8588;           15   
    1446;  1281.7341;           11   
    1447;  1282.6094;           15   
    1448;  1283.4846;           13   
    1449;  1284.3599;           23   
    1450;  1285.2352;           19   
    1451;  1286.1105;           11   
    1452;  1286.9857;           14   
    1453;  1287.8610;            9   
    1454;  1288.7363;           11   
    1455;  1289.6116;           10   
    1456;  1290.4868;            8   
    1457;  1291.3621;           18   
    1458;  1292.2374;           10   
    1459;  1293.1127;            7   
    1460;  1293.9879;           12   
    1461;  1294.8632;           12   
    1462;  1295.7385;            8   
    1463;  1296.6138;           12   
    1464;  1297.4890;           13   
    1465;  1298.3643;            9   
    1466;  1299.2396;            9   
    1467;  1300.1149;            5   
    1468;  1300.9901;            9   
    1469;  1301.8654;            9   
    1470;  1302.7407;           14   
    1471;  1303.6160;           10   
    1472;  1304.4912;           12   
    1473;  1305.3665;            8   
    1474;  1306.2418;           11   
    1475;  1307.1171;           17   
    1476;  1307.9923;           16   
    1477;  1308.8676;           53   
    1478;  1309.7429;           56   
    1479;  1310.6182;           54   
    1480;  1311.4934;           21   
    1481;  1312.3687;            9   
    1482;  1313.2440;           10   
    1483;  1314.1193;           10   
    1484;  1314.9945;           10   
    1485;  1315.8698;            8   
    1486;  1316.7451;            8   
    1487;  1317.6204;            9   
    1488;  1318.4956;            5   
    1489;  1319.3709;           14   
    1490;  1320.2462;           11   
    1491;  1321.1215;           12   
    1492;  1321.9967;            6   
    1493;  1322.8720;            7   
    1494;  1323.7473;            7   
    1495;  1324.6226;            5   
    1496;  1325.4978;           10   
    1497;  1326.3731;            7   
    1498;  1327.2484;           10   
    1499;  1328.1237;            6   
    1500;  1328.9989;            3   
    1501;  1329.8742;            5   
    1502;  1330.7495;            2   
    1503;  1331.6248;            6   
    1504;  1332.5000;            9   
    1505;  1333.3753;            6   
    1506;  1334.2506;            3   
    1507;  1335.1259;           10   
    1508;  1336.0011;           10   
    1509;  1336.8764;           11   
    1510;  1337.7517;            6   
    1511;  1338.6270;            4   
    1512;  1339.5022;            2   
    1513;  1340.3775;            7   
    1514;  1341.2528;            6   
    1515;  1342.1281;            7   
    1516;  1343.0033;            5   
    1517;  1343.8786;            3   
    1518;  1344.7539;           10   
    1519;  1345.6292;           15   
    1520;  1346.5044;           11   
    1521;  1347.3797;            9   
    1522;  1348.2550;            4   
    1523;  1349.1303;            6   
    1524;  1350.0055;            7   
    1525;  1350.8808;            4   
    1526;  1351.7561;            8   
    1527;  1352.6314;           10   
    1528;  1353.5066;           12   
    1529;  1354.3819;            4   
    1530;  1355.2572;            5   
    1531;  1356.1325;            7   
    1532;  1357.0077;            3   
    1533;  1357.8830;            5   
    1534;  1358.7583;            9   
    1535;  1359.6336;            7   
    1536;  1360.5088;            3   
    1537;  1361.3841;            8   
    1538;  1362.2594;            9   
    1539;  1363.1347;            0   
    1540;  1364.0099;            7   
    1541;  1364.8852;            8   
    1542;  1365.7605;            6   
    1543;  1366.6358;            4   
    1544;  1367.5110;            4   
    1545;  1368.3863;            5   
    1546;  1369.2616;            6   
    1547;  1370.1369;            9   
    1548;  1371.0121;            6   
    1549;  1371.8874;            6   
    1550;  1372.7627;            5   
    1551;  1373.6380;            8   
    1552;  1374.5132;            5   
    1553;  1375.3885;            6   
    1554;  1376.2638;            7   
    1555;  1377.1391;            4   
    1556;  1378.0143;            6   
    1557;  1378.8896;            6   
    1558;  1379.7649;           10   
    1559;  1380.6402;           11   
    1560;  1381.5154;            4   
    1561;  1382.3907;            8   
    1562;  1383.2660;            8   
    1563;  1384.1413;           12   
    1564;  1385.0165;            3   
    1565;  1385.8918;            4   
    1566;  1386.7671;            3   
    1567;  1387.6424;           17   
    1568;  1388.5176;           19   
    1569;  1389.3929;           13   
    1570;  1390.2682;            8   
    1571;  1391.1435;            6   
    1572;  1392.0187;            1   
    1573;  1392.8940;            3   
    1574;  1393.7693;            4   
    1575;  1394.6446;            4   
    1576;  1395.5198;            6   
    1577;  1396.3951;            6   
    1578;  1397.2704;            8   
    1579;  1398.1457;            7   
    1580;  1399.0209;            5   
    1581;  1399.8962;            7   
    1582;  1400.7715;            5   
    1583;  1401.6468;            7   
    1584;  1402.5220;            4   
    1585;  1403.3973;            4   
    1586;  1404.2726;            6   
    1587;  1405.1479;            8   
    1588;  1406.0231;            3   
    1589;  1406.8984;            5   
    1590;  1407.7737;            9   
    1591;  1408.6490;            2   
    1592;  1409.5242;            4   
    1593;  1410.3995;            4   
    1594;  1411.2748;            7   
    1595;  1412.1501;            9   
    1596;  1413.0253;            6   
    1597;  1413.9006;            7   
    1598;  1414.7759;            5   
    1599;  1415.6512;           12   
    1600;  1416.5264;           33   
    1601;  1417.4017;          126   
    1602;  1418.2770;          345   
    1603;  1419.1523;          592   
    1604;  1420.0275;          411   
    1605;  1420.9028;          185   
    1606;  1421.7781;           36   
    1607;  1422.6534;            8   
    1608;  1423.5286;            6   
    1609;  1424.4039;            2   
    1610;  1425.2792;            4   
    1611;  1426.1545;            2   
    1612;  1427.0297;            5   
    1613;  1427.9050;            1   
    1614;  1428.7803;            4   
    1615;  1429.6556;            2   
    1616;  1430.5308;            0   
    1617;  1431.4061;            5   
    1618;  1432.2814;            4   
    1619;  1433.1567;            5   
    1620;  1434.0319;            2   
    1621;  1434.9072;            4   
    1622;  1435.7825;            5   
    1623;  1436.6578;            5   
    1624;  1437.5330;            5   
    1625;  1438.4083;            1   
    1626;  1439.2836;            1   
    1627;  1440.1589;            2   
    1628;  1441.0341;            5   
    1629;  1441.9094;            3   
    1630;  1442.7847;            5   
    1631;  1443.6600;            3   
    1632;  1444.5352;            1   
    1633;  1445.4105;            6   
    1634;  1446.2858;            4   
    1635;  1447.1611;            2   
    1636;  1448.0363;            1   
    1637;  1448.9116;            5   
    1638;  1449.7869;            0   
    1639;  1450.6622;            4   
    1640;  1451.5374;            1   
    1641;  1452.4127;            3   
    1642;  1453.2880;            2   
    1643;  1454.1633;            0   
    1644;  1455.0385;            4   
    1645;  1455.9138;            2   
    1646;  1456.7891;            1   
    1647;  1457.6644;            1   
    1648;  1458.5396;            2   
    1649;  1459.4149;            1   
    1650;  1460.2902;            3   
    1651;  1461.1655;            8   
    1652;  1462.0407;            1   
    1653;  1462.9160;            3   
    1654;  1463.7913;            5   
    1655;  1464.6666;            3   
    1656;  1465.5418;            4   
    1657;  1466.4171;            7   
    1658;  1467.2924;            9   
    1659;  1468.1677;           21   
    1660;  1469.0429;           24   
    1661;  1469.9182;           51   
    1662;  1470.7935;          123   
    1663;  1471.6688;          280   
    1664;  1472.5440;          433   
    1665;  1473.4193;          252   
    1666;  1474.2946;           83   
    1667;  1475.1699;            8   
    1668;  1476.0451;            5   
    1669;  1476.9204;            2   
    1670;  1477.7957;            3   
    1671;  1478.6710;            1   
    1672;  1479.5462;            3   
    1673;  1480.4215;            1   
    1674;  1481.2968;            3   
    1675;  1482.1721;            1   
    1676;  1483.0473;            1   
    1677;  1483.9226;            4   
    1678;  1484.7979;            2   
    1679;  1485.6732;            1   
    1680;  1486.5484;            2   
    1681;  1487.4237;            2   
    1682;  1488.2990;            2   
    1683;  1489.1743;            1   
    1684;  1490.0495;            2   
    1685;  1490.9248;            0   
    1686;  1491.8001;            2   
    1687;  1492.6754;            1   
    1688;  1493.5506;            1   
    1689;  1494.4259;            0   
    1690;  1495.3012;            3   
    1691;  1496.1765;            3   
    1692;  1497.0517;            1   
    1693;  1497.9270;            5   
    1694;  1498.8023;            2   
    1695;  1499.6776;            4   
    1696;  1500.5528;            3   
    1697;  1501.4281;            1   
    1698;  1502.3034;            1   
    1699;  1503.1787;            0   
    1700;  1504.0539;            2   
    1701;  1504.9292;            2   
    1702;  1505.8045;            0   
    1703;  1506.6798;            2   
    1704;  1507.5550;            1   
    1705;  1508.4303;            1   
    1706;  1509.3056;            2   
    1707;  1510.1809;            2   
    1708;  1511.0561;            5   
    1709;  1511.9314;            2   
    1710;  1512.8067;            3   
    1711;  1513.6820;            1   
    1712;  1514.5572;            4   
    1713;  1515.4325;            2   
    1714;  1516.3078;            1   
    1715;  1517.1831;            6   
    1716;  1518.0583;            3   
    1717;  1518.9336;            3   
    1718;  1519.8089;            2   
    1719;  1520.6842;            4   
    1720;  1521.5594;            4   
    1721;  1522.4347;            4   
    1722;  1523.3100;            1   
    1723;  1524.1853;            8   
    1724;  1525.0605;            4   
    1725;  1525.9358;            0   
    1726;  1526.8111;            0   
    1727;  1527.6864;            4   
    1728;  1528.5616;            2   
    1729;  1529.4369;            4   
    1730;  1530.3122;            1   
    1731;  1531.1875;            5   
    1732;  1532.0627;            2   
    1733;  1532.9380;            2   
    1734;  1533.8133;            3   
    1735;  1534.6886;            1   
    1736;  1535.5638;            2   
    1737;  1536.4391;            1   
    1738;  1537.3144;            4   
    1739;  1538.1897;            2   
    1740;  1539.0649;            4   
    1741;  1539.9402;            8   
    1742;  1540.8155;           10   
    1743;  1541.6908;            3   
    1744;  1542.5660;            4   
    1745;  1543.4413;            3   
    1746;  1544.3166;            5   
    1747;  1545.1919;            1   
    1748;  1546.0671;            3   
    1749;  1546.9424;            0   
    1750;  1547.8177;            2   
    1751;  1548.6930;            2   
    1752;  1549.5682;            6   
    1753;  1550.4435;            0   
    1754;  1551.3188;            1   
    1755;  1552.1941;            3   
    1756;  1553.0693;            0   
    1757;  1553.9446;            4   
    1758;  1554.8199;            1   
    1759;  1555.6952;            2   
    1760;  1556.5704;            3   
    1761;  1557.4457;            1   
    1762;  1558.3210;            1   
    1763;  1559.1963;            3   
    1764;  1560.0715;            6   
    1765;  1560.9468;            4   
    1766;  1561.8221;            3   
    1767;  1562.6974;            1   
    1768;  1563.5726;            0   
    1769;  1564.4479;            1   
    1770;  1565.3232;            2   
    1771;  1566.1985;            2   
    1772;  1567.0737;            0   
    1773;  1567.9490;            2   
    1774;  1568.8243;            2   
    1775;  1569.6996;            3   
    1776;  1570.5748;            1   
    1777;  1571.4501;            2   
    1778;  1572.3254;            5   
    1779;  1573.2007;            1   
    1780;  1574.0759;            1   
    1781;  1574.9512;            0   
    1782;  1575.8265;            3   
    1783;  1576.7018;            1   
    1784;  1577.5770;            4   
    1785;  1578.4523;            0   
    1786;  1579.3276;            3   
    1787;  1580.2029;            2   
    1788;  1581.0781;            0   
    1789;  1581.9534;            4   
    1790;  1582.8287;            1   
    1791;  1583.7040;            4   
    1792;  1584.5792;            3   
    1793;  1585.4545;            2   
    1794;  1586.3298;            2   
    1795;  1587.2051;            1   
    1796;  1588.0803;            4   
    1797;  1588.9556;            3   
    1798;  1589.8309;            1   
    1799;  1590.7062;            1   
    1800;  1591.5814;            2   
    1801;  1592.4567;            2   
    1802;  1593.3320;            5   
    1803;  1594.2073;            5   
    1804;  1595.0825;            1   
    1805;  1595.9578;            2   
    1806;  1596.8331;            1   
    1807;  1597.7084;            4   
    1808;  1598.5836;            2   
    1809;  1599.4589;            3   
    1810;  1600.3342;           13   
    1811;  1601.2095;            7   
    1812;  1602.0847;            2   
    1813;  1602.9600;            7   
    1814;  1603.8353;            3   
    1815;  1604.7106;            6   
    1816;  1605.5858;            4   
    1817;  1606.4611;            8   
    1818;  1607.3364;            2   
    1819;  1608.2117;            2   
    1820;  1609.0869;            0   
    1821;  1609.9622;            0   
    1822;  1610.8375;            6   
    1823;  1611.7128;            3   
    1824;  1612.5880;            0   
    1825;  1613.4633;            1   
    1826;  1614.3386;            3   
    1827;  1615.2139;            3   
    1828;  1616.0891;            3   
    1829;  1616.9644;            1   
    1830;  1617.8397;            1   
    1831;  1618.7150;            1   
    1832;  1619.5902;            2   
    1833;  1620.4655;            0   
    1834;  1621.3408;            0   
    1835;  1622.2161;            3   
    1836;  1623.0913;            2   
    1837;  1623.9666;            0   
    1838;  1624.8419;            1   
    1839;  1625.7172;            2   
    1840;  1626.5924;            4   
    1841;  1627.4677;            1   
    1842;  1628.3430;            0   
    1843;  1629.2183;            1   
    1844;  1630.0935;            0   
    1845;  1630.9688;            3   
    1846;  1631.8441;            2   
    1847;  1632.7194;            5   
    1848;  1633.5946;            7   
    1849;  1634.4699;            4   
    1850;  1635.3452;            2   
    1851;  1636.2205;            3   
    1852;  1637.0957;            3   
    1853;  1637.9710;            0   
    1854;  1638.8463;            3   
    1855;  1639.7216;            3   
    1856;  1640.5968;            2   
    1857;  1641.4721;            4   
    1858;  1642.3474;            0   
    1859;  1643.2227;            1   
    1860;  1644.0979;            1   
    1861;  1644.9732;            2   
    1862;  1645.8485;            1   
    1863;  1646.7238;            0   
    1864;  1647.5990;            3   
    1865;  1648.4743;            1   
    1866;  1649.3496;            0   
    1867;  1650.2249;            3   
    1868;  1651.1001;            1   
    1869;  1651.9754;            1   
    1870;  1652.8507;            2   
    1871;  1653.7260;            3   
    1872;  1654.6012;            5   
    1873;  1655.4765;            1   
    1874;  1656.3518;            1   
    1875;  1657.2271;            3   
    1876;  1658.1023;            1   
    1877;  1658.9776;            0   
    1878;  1659.8529;            4   
    1879;  1660.7282;            0   
    1880;  1661.6034;            1   
    1881;  1662.4787;            0   
    1882;  1663.3540;            3   
    1883;  1664.2293;            3   
    1884;  1665.1045;            2   
    1885;  1665.9798;            1   
    1886;  1666.8551;            1   
    1887;  1667.7304;            2   
    1888;  1668.6056;            1   
    1889;  1669.4809;            0   
    1890;  1670.3562;            0   
    1891;  1671.2315;            0   
    1892;  1672.1067;            1   
    1893;  1672.9820;            4   
    1894;  1673.8573;            2   
    1895;  1674.7326;            2   
    1896;  1675.6078;            1   
    1897;  1676.4831;            3   
    1898;  1677.3584;            0   
    1899;  1678.2337;            0   
    1900;  1679.1089;            1   
    1901;  1679.9842;            3   
    1902;  1680.8595;            1   
    1903;  1681.7348;            1   
    1904;  1682.6100;            2   
    1905;  1683.4853;            2   
    1906;  1684.3606;            3   
    1907;  1685.2359;            2   
    1908;  1686.1111;            0   
    1909;  1686.9864;            1   
    1910;  1687.8617;            2   
    1911;  1688.7370;            1   
    1912;  1689.6122;            1   
    1913;  1690.4875;            2   
    1914;  1691.3628;            2   
    1915;  1692.2381;            1   
    1916;  1693.1133;            0   
    1917;  1693.9886;            2   
    1918;  1694.8639;            7   
    1919;  1695.7392;            0   
    1920;  1696.6144;            1   
    1921;  1697.4897;            0   
    1922;  1698.3650;            0   
    1923;  1699.2403;            2   
    1924;  1700.1155;            2   
    1925;  1700.9908;            0   
    1926;  1701.8661;            1   
    1927;  1702.7414;            2   
    1928;  1703.6166;            1   
    1929;  1704.4919;            4   
    1930;  1705.3672;            1   
    1931;  1706.2425;            4   
    1932;  1707.1177;            3   
    1933;  1707.9930;            0   
    1934;  1708.8683;            2   
    1935;  1709.7436;            4   
    1936;  1710.6188;            3   
    1937;  1711.4941;            3   
    1938;  1712.3694;            0   
    1939;  1713.2447;            1   
    1940;  1714.1199;            0   
    1941;  1714.9952;            4   
    1942;  1715.8705;            2   
    1943;  1716.7458;            1   
    1944;  1717.6210;            0   
    1945;  1718.4963;            2   
    1946;  1719.3716;            0   
    1947;  1720.2469;            1   
    1948;  1721.1221;            3   
    1949;  1721.9974;            1   
    1950;  1722.8727;            1   
    1951;  1723.7480;            1   
    1952;  1724.6232;            2   
    1953;  1725.4985;            0   
    1954;  1726.3738;            2   
    1955;  1727.2491;            2   
    1956;  1728.1243;            1   
    1957;  1728.9996;            1   
    1958;  1729.8749;            2   
    1959;  1730.7502;            4   
    1960;  1731.6254;            0   
    1961;  1732.5007;            2   
    1962;  1733.3760;            4   
    1963;  1734.2513;            2   
    1964;  1735.1265;            1   
    1965;  1736.0018;            2   
    1966;  1736.8771;            1   
    1967;  1737.7524;            3   
    1968;  1738.6276;            2   
    1969;  1739.5029;            1   
    1970;  1740.3782;            3   
    1971;  1741.2535;            2   
    1972;  1742.1287;            6   
    1973;  1743.0040;            6   
    1974;  1743.8793;            1   
    1975;  1744.7546;            5   
    1976;  1745.6298;            1   
    1977;  1746.5051;            2   
    1978;  1747.3804;            1   
    1979;  1748.2557;            1   
    1980;  1749.1309;            0   
    1981;  1750.0062;            0   
    1982;  1750.8815;            0   
    1983;  1751.7568;            0   
    1984;  1752.6320;            0   
    1985;  1753.5073;            0   
    1986;  1754.3826;            0   
    1987;  1755.2579;            0   
    1988;  1756.1331;            0   
    1989;  1757.0084;            0   
    1990;  1757.8837;            0   
    1991;  1758.7590;            0   
    1992;  1759.6342;            0   
    1993;  1760.5095;            0   
    1994;  1761.3848;            0   
    1995;  1762.2601;            0   
    1996;  1763.1353;            0   
    1997;  1764.0106;            0   
    1998;  1764.8859;            0   
    1999;  1765.7612;            0   
    2000;  1766.6364;            0   
    2001;  1767.5117;            0   
    2002;  1768.3870;            0   
    2003;  1769.2623;            0   
    2004;  1770.1375;            0   
    2005;  1771.0128;            0   
    2006;  1771.8881;            0   
    2007;  1772.7634;            0   
    2008;  1773.6386;            0   
    2009;  1774.5139;            0   
    2010;  1775.3892;            0   
    2011;  1776.2645;            0   
    2012;  1777.1397;            0   
    2013;  1778.0150;            0   
    2014;  1778.8903;            0   
    2015;  1779.7656;            0   
    2016;  1780.6408;            0   
    2017;  1781.5161;            0   
    2018;  1782.3914;            0   
    2019;  1783.2667;            0   
    2020;  1784.1419;            0   
    2021;  1785.0172;            0   
    2022;  1785.8925;            0   
    2023;  1786.7678;            0   
    2024;  1787.6430;            0   
    2025;  1788.5183;            0   
    2026;  1789.3936;            0   
    2027;  1790.2689;            0   
    2028;  1791.1441;            0   
    2029;  1792.0194;            0   
    2030;  1792.8947;            0   
    2031;  1793.7700;            0   
    2032;  1794.6452;            0   
    2033;  1795.5205;            0   
    2034;  1796.3958;            0   
    2035;  1797.2711;            0   
    2036;  1798.1463;            0   
    2037;  1799.0216;            0   
    2038;  1799.8969;            0   
    2039;  1800.7722;            0   
    2040;  1801.6474;            0   
    2041;  1802.5227;            0   
    2042;  1803.3980;            0   
    2043;  1804.2733;            0   
    2044;  1805.1485;            0   
    2045;  1806.0238;            0   
    2046;  1806.8991;            0   
    2047;  1807.7744;            0   
    2048;  1808.6496;            0   
ROI Nummer; Anfangskanal; Endkanal; Anfangsenergie keV ; Endenergie keV; Nettoimpulse; Bruttoimpulse; Untergrundimpulse
In den Daten wurden keine Linien gefunden
ROI Nummer; prozentualer Fehler der Lage; Lage keV; FWHM keV; FWTM keV; FWTM/FWHM Verhltnis; H/L Verhltnis
No Peak records found in data.
Name; Energie keV; Flags; Aktivitt uCi/Unit; Aktivittsfehler %; NWG uCi/Unit; MDA Error %
Es wurden keine Nuklidergebnisse gefunden.
Name; Erwartete Endergie keV; Gemessene Energie keV; Differenz von erwarteter keV; FWHM; Flags; Aktivitt uCi/Unit; Aktivittsfehler %
Es wurden keine Nuklidergebnisse gefunden.
