Kanal;   Energie(keV); Impulse
       1;    16.9617;          526   
       2;    17.8370;          521   
       3;    18.7122;          512   
       4;    19.5875;          504   
       5;    20.4628;          474   
       6;    21.3381;          444   
       7;    22.2133;          466   
       8;    23.0886;          476   
       9;    23.9639;          471   
      10;    24.8392;          455   
      11;    25.7144;          433   
      12;    26.5897;          455   
      13;    27.4650;          432   
      14;    28.3403;          428   
      15;    29.2155;          422   
      16;    30.0908;          371   
      17;    30.9661;          414   
      18;    31.8414;          372   
      19;    32.7166;          405   
      20;    33.5919;          360   
      21;    34.4672;          401   
      22;    35.3425;          402   
      23;    36.2177;          391   
      24;    37.0930;          375   
      25;    37.9683;          389   
      26;    38.8436;          355   
      27;    39.7188;          347   
      28;    40.5941;          372   
      29;    41.4694;          348   
      30;    42.3447;          388   
      31;    43.2199;          317   
      32;    44.0952;          400   
      33;    44.9705;          386   
      34;    45.8458;          370   
      35;    46.7210;          313   
      36;    47.5963;          351   
      37;    48.4716;          367   
      38;    49.3469;          374   
      39;    50.2221;          350   
      40;    51.0974;          351   
      41;    51.9727;          358   
      42;    52.8480;          361   
      43;    53.7232;          355   
      44;    54.5985;          364   
      45;    55.4738;          372   
      46;    56.3491;          350   
      47;    57.2243;          351   
      48;    58.0996;          348   
      49;    58.9749;          316   
      50;    59.8502;          347   
      51;    60.7254;          397   
      52;    61.6007;          395   
      53;    62.4760;          360   
      54;    63.3513;          361   
      55;    64.2265;          362   
      56;    65.1018;          371   
      57;    65.9771;          367   
      58;    66.8524;          369   
      59;    67.7276;          404   
      60;    68.6029;          371   
      61;    69.4782;          365   
      62;    70.3535;          406   
      63;    71.2287;          388   
      64;    72.1040;          456   
      65;    72.9793;          402   
      66;    73.8546;          439   
      67;    74.7298;          482   
      68;    75.6051;          609   
      69;    76.4804;          671   
      70;    77.3557;          709   
      71;    78.2309;          894   
      72;    79.1062;          610   
      73;    79.9815;          468   
      74;    80.8568;          395   
      75;    81.7320;          404   
      76;    82.6073;          432   
      77;    83.4826;          432   
      78;    84.3579;          446   
      79;    85.2331;          438   
      80;    86.1084;          456   
      81;    86.9837;          558   
      82;    87.8590;          695   
      83;    88.7342;          644   
      84;    89.6095;          484   
      85;    90.4848;          537   
      86;    91.3601;          536   
      87;    92.2353;          466   
      88;    93.1106;          442   
      89;    93.9859;          439   
      90;    94.8612;          415   
      91;    95.7364;          473   
      92;    96.6117;          466   
      93;    97.4870;          459   
      94;    98.3623;          457   
      95;    99.2375;          471   
      96;   100.1128;          450   
      97;   100.9881;          470   
      98;   101.8634;          449   
      99;   102.7386;          454   
     100;   103.6139;          500   
     101;   104.4892;          468   
     102;   105.3645;          462   
     103;   106.2397;          494   
     104;   107.1150;          506   
     105;   107.9903;          464   
     106;   108.8656;          463   
     107;   109.7408;          479   
     108;   110.6161;          458   
     109;   111.4914;          462   
     110;   112.3667;          460   
     111;   113.2419;          470   
     112;   114.1172;          451   
     113;   114.9925;          525   
     114;   115.8678;          499   
     115;   116.7430;          486   
     116;   117.6183;          484   
     117;   118.4936;          504   
     118;   119.3689;          466   
     119;   120.2441;          469   
     120;   121.1194;          477   
     121;   121.9947;          491   
     122;   122.8700;          511   
     123;   123.7452;          476   
     124;   124.6205;          477   
     125;   125.4958;          495   
     126;   126.3711;          504   
     127;   127.2463;          474   
     128;   128.1216;          518   
     129;   128.9969;          518   
     130;   129.8722;          521   
     131;   130.7474;          476   
     132;   131.6227;          546   
     133;   132.4980;          460   
     134;   133.3733;          487   
     135;   134.2485;          484   
     136;   135.1238;          476   
     137;   135.9991;          534   
     138;   136.8744;          511   
     139;   137.7496;          483   
     140;   138.6249;          506   
     141;   139.5002;          469   
     142;   140.3755;          516   
     143;   141.2507;          487   
     144;   142.1260;          522   
     145;   143.0013;          474   
     146;   143.8766;          520   
     147;   144.7518;          483   
     148;   145.6271;          502   
     149;   146.5024;          459   
     150;   147.3777;          442   
     151;   148.2529;          472   
     152;   149.1282;          483   
     153;   150.0035;          501   
     154;   150.8788;          507   
     155;   151.7540;          464   
     156;   152.6293;          489   
     157;   153.5046;          484   
     158;   154.3799;          464   
     159;   155.2551;          482   
     160;   156.1304;          491   
     161;   157.0057;          477   
     162;   157.8810;          473   
     163;   158.7562;          488   
     164;   159.6315;          472   
     165;   160.5068;          503   
     166;   161.3821;          530   
     167;   162.2573;          507   
     168;   163.1326;          470   
     169;   164.0079;          505   
     170;   164.8832;          459   
     171;   165.7584;          506   
     172;   166.6337;          486   
     173;   167.5090;          502   
     174;   168.3843;          518   
     175;   169.2595;          498   
     176;   170.1348;          532   
     177;   171.0101;          541   
     178;   171.8854;          521   
     179;   172.7606;          491   
     180;   173.6359;          537   
     181;   174.5112;          584   
     182;   175.3865;          596   
     183;   176.2617;          678   
     184;   177.1370;          665   
     185;   178.0123;          658   
     186;   178.8876;          617   
     187;   179.7628;          606   
     188;   180.6381;          605   
     189;   181.5134;          604   
     190;   182.3887;          573   
     191;   183.2639;          599   
     192;   184.1392;          617   
     193;   185.0145;          540   
     194;   185.8898;          562   
     195;   186.7650;          571   
     196;   187.6403;          540   
     197;   188.5156;          522   
     198;   189.3909;          537   
     199;   190.2661;          562   
     200;   191.1414;          553   
     201;   192.0167;          524   
     202;   192.8920;          534   
     203;   193.7672;          525   
     204;   194.6425;          490   
     205;   195.5178;          549   
     206;   196.3931;          506   
     207;   197.2683;          525   
     208;   198.1436;          511   
     209;   199.0189;          530   
     210;   199.8942;          543   
     211;   200.7694;          501   
     212;   201.6447;          497   
     213;   202.5200;          499   
     214;   203.3953;          489   
     215;   204.2705;          444   
     216;   205.1458;          449   
     217;   206.0211;          489   
     218;   206.8964;          454   
     219;   207.7716;          475   
     220;   208.6469;          486   
     221;   209.5222;          440   
     222;   210.3975;          525   
     223;   211.2727;          475   
     224;   212.1480;          466   
     225;   213.0233;          456   
     226;   213.8986;          479   
     227;   214.7738;          498   
     228;   215.6491;          482   
     229;   216.5244;          503   
     230;   217.3997;          484   
     231;   218.2749;          478   
     232;   219.1502;          533   
     233;   220.0255;          477   
     234;   220.9008;          500   
     235;   221.7760;          480   
     236;   222.6513;          460   
     237;   223.5266;          514   
     238;   224.4019;          465   
     239;   225.2771;          416   
     240;   226.1524;          479   
     241;   227.0277;          480   
     242;   227.9030;          474   
     243;   228.7782;          455   
     244;   229.6535;          439   
     245;   230.5288;          401   
     246;   231.4041;          436   
     247;   232.2793;          455   
     248;   233.1546;          420   
     249;   234.0299;          424   
     250;   234.9052;          430   
     251;   235.7804;          427   
     252;   236.6557;          413   
     253;   237.5310;          404   
     254;   238.4063;          446   
     255;   239.2815;          413   
     256;   240.1568;          393   
     257;   241.0321;          389   
     258;   241.9074;          410   
     259;   242.7826;          451   
     260;   243.6579;          423   
     261;   244.5332;          422   
     262;   245.4085;          391   
     263;   246.2837;          417   
     264;   247.1590;          380   
     265;   248.0343;          392   
     266;   248.9096;          391   
     267;   249.7848;          392   
     268;   250.6601;          380   
     269;   251.5354;          356   
     270;   252.4107;          388   
     271;   253.2859;          367   
     272;   254.1612;          343   
     273;   255.0365;          334   
     274;   255.9118;          336   
     275;   256.7870;          326   
     276;   257.6623;          358   
     277;   258.5376;          388   
     278;   259.4129;          334   
     279;   260.2881;          323   
     280;   261.1634;          339   
     281;   262.0387;          364   
     282;   262.9140;          338   
     283;   263.7892;          345   
     284;   264.6645;          325   
     285;   265.5398;          307   
     286;   266.4151;          350   
     287;   267.2903;          326   
     288;   268.1656;          346   
     289;   269.0409;          340   
     290;   269.9162;          331   
     291;   270.7914;          344   
     292;   271.6667;          351   
     293;   272.5420;          308   
     294;   273.4173;          306   
     295;   274.2925;          359   
     296;   275.1678;          309   
     297;   276.0431;          334   
     298;   276.9184;          330   
     299;   277.7936;          318   
     300;   278.6689;          345   
     301;   279.5442;          318   
     302;   280.4195;          320   
     303;   281.2947;          335   
     304;   282.1700;          347   
     305;   283.0453;          319   
     306;   283.9206;          329   
     307;   284.7958;          344   
     308;   285.6711;          362   
     309;   286.5464;          342   
     310;   287.4217;          325   
     311;   288.2969;          340   
     312;   289.1722;          313   
     313;   290.0475;          323   
     314;   290.9228;          348   
     315;   291.7980;          339   
     316;   292.6733;          301   
     317;   293.5486;          347   
     318;   294.4239;          299   
     319;   295.2991;          333   
     320;   296.1744;          310   
     321;   297.0497;          360   
     322;   297.9250;          338   
     323;   298.8002;          377   
     324;   299.6755;          325   
     325;   300.5508;          369   
     326;   301.4261;          338   
     327;   302.3013;          331   
     328;   303.1766;          325   
     329;   304.0519;          345   
     330;   304.9272;          322   
     331;   305.8024;          357   
     332;   306.6777;          336   
     333;   307.5530;          360   
     334;   308.4283;          322   
     335;   309.3035;          347   
     336;   310.1788;          353   
     337;   311.0541;          319   
     338;   311.9294;          314   
     339;   312.8046;          349   
     340;   313.6799;          355   
     341;   314.5552;          297   
     342;   315.4305;          310   
     343;   316.3057;          356   
     344;   317.1810;          342   
     345;   318.0563;          336   
     346;   318.9316;          366   
     347;   319.8068;          327   
     348;   320.6821;          364   
     349;   321.5574;          366   
     350;   322.4327;          357   
     351;   323.3079;          361   
     352;   324.1832;          310   
     353;   325.0585;          321   
     354;   325.9338;          309   
     355;   326.8090;          362   
     356;   327.6843;          336   
     357;   328.5596;          354   
     358;   329.4349;          323   
     359;   330.3101;          369   
     360;   331.1854;          360   
     361;   332.0607;          352   
     362;   332.9360;          316   
     363;   333.8112;          397   
     364;   334.6865;          361   
     365;   335.5618;          358   
     366;   336.4371;          351   
     367;   337.3123;          345   
     368;   338.1876;          355   
     369;   339.0629;          331   
     370;   339.9382;          333   
     371;   340.8134;          343   
     372;   341.6887;          334   
     373;   342.5640;          308   
     374;   343.4393;          329   
     375;   344.3145;          358   
     376;   345.1898;          367   
     377;   346.0651;          311   
     378;   346.9404;          300   
     379;   347.8156;          304   
     380;   348.6909;          257   
     381;   349.5662;          234   
     382;   350.4415;          277   
     383;   351.3167;          236   
     384;   352.1920;          240   
     385;   353.0673;          231   
     386;   353.9426;          261   
     387;   354.8178;          219   
     388;   355.6931;          254   
     389;   356.5684;          233   
     390;   357.4437;          209   
     391;   358.3189;          276   
     392;   359.1942;          221   
     393;   360.0695;          205   
     394;   360.9448;          199   
     395;   361.8200;          204   
     396;   362.6953;          193   
     397;   363.5706;          202   
     398;   364.4459;          200   
     399;   365.3211;          195   
     400;   366.1964;          218   
     401;   367.0717;          214   
     402;   367.9470;          214   
     403;   368.8222;          177   
     404;   369.6975;          185   
     405;   370.5728;          190   
     406;   371.4481;          188   
     407;   372.3233;          155   
     408;   373.1986;          150   
     409;   374.0739;          162   
     410;   374.9492;          176   
     411;   375.8244;          172   
     412;   376.6997;          173   
     413;   377.5750;          151   
     414;   378.4503;          162   
     415;   379.3255;          155   
     416;   380.2008;          180   
     417;   381.0761;          153   
     418;   381.9514;          149   
     419;   382.8266;          135   
     420;   383.7019;          139   
     421;   384.5772;          147   
     422;   385.4525;          137   
     423;   386.3277;          155   
     424;   387.2030;          179   
     425;   388.0783;          162   
     426;   388.9536;          151   
     427;   389.8288;          129   
     428;   390.7041;          128   
     429;   391.5794;          145   
     430;   392.4547;          147   
     431;   393.3299;          135   
     432;   394.2052;          133   
     433;   395.0805;          141   
     434;   395.9558;          122   
     435;   396.8310;          149   
     436;   397.7063;          119   
     437;   398.5816;          128   
     438;   399.4569;          113   
     439;   400.3321;          145   
     440;   401.2074;          130   
     441;   402.0827;          139   
     442;   402.9580;          100   
     443;   403.8332;          141   
     444;   404.7085;          118   
     445;   405.5838;          125   
     446;   406.4591;          106   
     447;   407.3343;          118   
     448;   408.2096;          114   
     449;   409.0849;          124   
     450;   409.9602;           96   
     451;   410.8354;          113   
     452;   411.7107;          102   
     453;   412.5860;          106   
     454;   413.4613;          113   
     455;   414.3365;          105   
     456;   415.2118;          114   
     457;   416.0871;          112   
     458;   416.9624;          107   
     459;   417.8376;          112   
     460;   418.7129;          104   
     461;   419.5882;          103   
     462;   420.4635;           93   
     463;   421.3387;          118   
     464;   422.2140;          104   
     465;   423.0893;          114   
     466;   423.9646;          104   
     467;   424.8398;           90   
     468;   425.7151;          101   
     469;   426.5904;          115   
     470;   427.4657;          108   
     471;   428.3409;           92   
     472;   429.2162;          101   
     473;   430.0915;           90   
     474;   430.9668;          101   
     475;   431.8420;           99   
     476;   432.7173;           87   
     477;   433.5926;           95   
     478;   434.4679;           99   
     479;   435.3431;          103   
     480;   436.2184;           99   
     481;   437.0937;          106   
     482;   437.9690;           90   
     483;   438.8442;           97   
     484;   439.7195;           88   
     485;   440.5948;           90   
     486;   441.4701;           95   
     487;   442.3453;          102   
     488;   443.2206;          122   
     489;   444.0959;          110   
     490;   444.9712;           93   
     491;   445.8464;          105   
     492;   446.7217;          109   
     493;   447.5970;           99   
     494;   448.4723;           68   
     495;   449.3475;          101   
     496;   450.2228;           81   
     497;   451.0981;           95   
     498;   451.9734;           92   
     499;   452.8486;           92   
     500;   453.7239;           96   
     501;   454.5992;           98   
     502;   455.4745;           83   
     503;   456.3497;           79   
     504;   457.2250;           87   
     505;   458.1003;           88   
     506;   458.9756;           93   
     507;   459.8508;          102   
     508;   460.7261;           91   
     509;   461.6014;           84   
     510;   462.4767;           91   
     511;   463.3519;           89   
     512;   464.2272;           97   
     513;   465.1025;          100   
     514;   465.9778;           82   
     515;   466.8530;           94   
     516;   467.7283;           87   
     517;   468.6036;           85   
     518;   469.4789;           89   
     519;   470.3541;           80   
     520;   471.2294;           87   
     521;   472.1047;           89   
     522;   472.9800;           86   
     523;   473.8552;           93   
     524;   474.7305;           73   
     525;   475.6058;           96   
     526;   476.4811;           78   
     527;   477.3563;           83   
     528;   478.2316;           76   
     529;   479.1069;           81   
     530;   479.9822;           85   
     531;   480.8574;           95   
     532;   481.7327;           81   
     533;   482.6080;           83   
     534;   483.4833;           76   
     535;   484.3585;           82   
     536;   485.2338;           82   
     537;   486.1091;           83   
     538;   486.9844;           90   
     539;   487.8596;           89   
     540;   488.7349;           77   
     541;   489.6102;           93   
     542;   490.4855;           76   
     543;   491.3607;           76   
     544;   492.2360;           71   
     545;   493.1113;           84   
     546;   493.9866;           80   
     547;   494.8618;           84   
     548;   495.7371;           85   
     549;   496.6124;           86   
     550;   497.4877;           86   
     551;   498.3629;           83   
     552;   499.2382;           66   
     553;   500.1135;           94   
     554;   500.9888;           80   
     555;   501.8640;           86   
     556;   502.7393;           76   
     557;   503.6146;           72   
     558;   504.4899;           73   
     559;   505.3651;           87   
     560;   506.2404;           66   
     561;   507.1157;           71   
     562;   507.9910;           59   
     563;   508.8662;           73   
     564;   509.7415;           79   
     565;   510.6168;           87   
     566;   511.4921;           67   
     567;   512.3673;          106   
     568;   513.2426;           94   
     569;   514.1179;          107   
     570;   514.9932;          175   
     571;   515.8684;          465   
     572;   516.7437;         1559   
     573;   517.6190;         4205   
     574;   518.4943;         7799   
     575;   519.3695;         9766   
     576;   520.2448;         7833   
     577;   521.1201;         4058   
     578;   521.9954;         1523   
     579;   522.8706;          456   
     580;   523.7459;          196   
     581;   524.6212;           96   
     582;   525.4965;           69   
     583;   526.3717;           51   
     584;   527.2470;           70   
     585;   528.1223;           52   
     586;   528.9976;           57   
     587;   529.8728;           54   
     588;   530.7481;           55   
     589;   531.6234;           55   
     590;   532.4987;           55   
     591;   533.3739;           41   
     592;   534.2492;           47   
     593;   535.1245;           57   
     594;   535.9998;           55   
     595;   536.8750;           50   
     596;   537.7503;           53   
     597;   538.6256;           44   
     598;   539.5009;           41   
     599;   540.3761;           47   
     600;   541.2514;           40   
     601;   542.1267;           46   
     602;   543.0020;           49   
     603;   543.8772;           34   
     604;   544.7525;           40   
     605;   545.6278;           42   
     606;   546.5031;           53   
     607;   547.3783;           38   
     608;   548.2536;           42   
     609;   549.1289;           59   
     610;   550.0042;           55   
     611;   550.8794;           52   
     612;   551.7547;           52   
     613;   552.6300;           46   
     614;   553.5053;           51   
     615;   554.3805;           35   
     616;   555.2558;           66   
     617;   556.1311;           45   
     618;   557.0064;           44   
     619;   557.8816;           39   
     620;   558.7569;           47   
     621;   559.6322;           64   
     622;   560.5075;           39   
     623;   561.3827;           38   
     624;   562.2580;           49   
     625;   563.1333;           49   
     626;   564.0086;           47   
     627;   564.8838;           53   
     628;   565.7591;           40   
     629;   566.6344;           44   
     630;   567.5097;           50   
     631;   568.3849;           48   
     632;   569.2602;           55   
     633;   570.1355;           51   
     634;   571.0108;           45   
     635;   571.8860;           46   
     636;   572.7613;           66   
     637;   573.6366;           47   
     638;   574.5119;           40   
     639;   575.3871;           41   
     640;   576.2624;           52   
     641;   577.1377;           57   
     642;   578.0130;           46   
     643;   578.8882;           52   
     644;   579.7635;           50   
     645;   580.6388;           51   
     646;   581.5141;           53   
     647;   582.3893;           54   
     648;   583.2646;           52   
     649;   584.1399;           37   
     650;   585.0152;           36   
     651;   585.8904;           49   
     652;   586.7657;           49   
     653;   587.6410;           51   
     654;   588.5163;           31   
     655;   589.3915;           50   
     656;   590.2668;           44   
     657;   591.1421;           54   
     658;   592.0174;           65   
     659;   592.8926;           75   
     660;   593.7679;           57   
     661;   594.6432;           50   
     662;   595.5185;           40   
     663;   596.3937;           60   
     664;   597.2690;           47   
     665;   598.1443;           56   
     666;   599.0196;           43   
     667;   599.8948;           35   
     668;   600.7701;           48   
     669;   601.6454;           55   
     670;   602.5207;           43   
     671;   603.3959;           58   
     672;   604.2712;           50   
     673;   605.1465;           46   
     674;   606.0218;           47   
     675;   606.8970;           47   
     676;   607.7723;           40   
     677;   608.6476;           56   
     678;   609.5229;           49   
     679;   610.3981;           47   
     680;   611.2734;           38   
     681;   612.1487;           37   
     682;   613.0240;           42   
     683;   613.8992;           45   
     684;   614.7745;           48   
     685;   615.6498;           47   
     686;   616.5251;           39   
     687;   617.4003;           65   
     688;   618.2756;           80   
     689;   619.1509;           82   
     690;   620.0262;           63   
     691;   620.9014;           51   
     692;   621.7767;           42   
     693;   622.6520;           48   
     694;   623.5273;           35   
     695;   624.4025;           41   
     696;   625.2778;           33   
     697;   626.1531;           48   
     698;   627.0284;           52   
     699;   627.9036;           41   
     700;   628.7789;           35   
     701;   629.6542;           38   
     702;   630.5295;           38   
     703;   631.4047;           45   
     704;   632.2800;           59   
     705;   633.1553;           47   
     706;   634.0306;           39   
     707;   634.9058;           27   
     708;   635.7811;           53   
     709;   636.6564;           33   
     710;   637.5317;           37   
     711;   638.4069;           31   
     712;   639.2822;           49   
     713;   640.1575;           54   
     714;   641.0328;           35   
     715;   641.9080;           47   
     716;   642.7833;           43   
     717;   643.6586;           49   
     718;   644.5339;           34   
     719;   645.4091;           34   
     720;   646.2844;           43   
     721;   647.1597;           44   
     722;   648.0350;           53   
     723;   648.9102;           46   
     724;   649.7855;           21   
     725;   650.6608;           46   
     726;   651.5361;           51   
     727;   652.4113;           30   
     728;   653.2866;           35   
     729;   654.1619;           39   
     730;   655.0372;           40   
     731;   655.9124;           43   
     732;   656.7877;           32   
     733;   657.6630;           42   
     734;   658.5383;           45   
     735;   659.4135;           51   
     736;   660.2888;           34   
     737;   661.1641;           33   
     738;   662.0394;           44   
     739;   662.9146;           52   
     740;   663.7899;           38   
     741;   664.6652;           33   
     742;   665.5405;           36   
     743;   666.4157;           41   
     744;   667.2910;           39   
     745;   668.1663;           41   
     746;   669.0416;           57   
     747;   669.9168;           38   
     748;   670.7921;           38   
     749;   671.6674;           47   
     750;   672.5427;           37   
     751;   673.4179;           27   
     752;   674.2932;           45   
     753;   675.1685;           38   
     754;   676.0438;           40   
     755;   676.9190;           54   
     756;   677.7943;           31   
     757;   678.6696;           46   
     758;   679.5449;           42   
     759;   680.4201;           34   
     760;   681.2954;           48   
     761;   682.1707;           33   
     762;   683.0460;           47   
     763;   683.9212;           39   
     764;   684.7965;           45   
     765;   685.6718;           41   
     766;   686.5471;           42   
     767;   687.4223;           48   
     768;   688.2976;           37   
     769;   689.1729;           31   
     770;   690.0482;           41   
     771;   690.9234;           37   
     772;   691.7987;           42   
     773;   692.6740;           45   
     774;   693.5493;           45   
     775;   694.4245;           36   
     776;   695.2998;           46   
     777;   696.1751;           52   
     778;   697.0504;           41   
     779;   697.9256;           45   
     780;   698.8009;           30   
     781;   699.6762;           32   
     782;   700.5515;           41   
     783;   701.4267;           43   
     784;   702.3020;           47   
     785;   703.1773;           34   
     786;   704.0526;           33   
     787;   704.9278;           36   
     788;   705.8031;           37   
     789;   706.6784;           44   
     790;   707.5537;           46   
     791;   708.4289;           38   
     792;   709.3042;           43   
     793;   710.1795;           38   
     794;   711.0548;           51   
     795;   711.9300;           26   
     796;   712.8053;           42   
     797;   713.6806;           44   
     798;   714.5559;           39   
     799;   715.4311;           29   
     800;   716.3064;           36   
     801;   717.1817;           39   
     802;   718.0570;           46   
     803;   718.9322;           47   
     804;   719.8075;           35   
     805;   720.6828;           44   
     806;   721.5581;           41   
     807;   722.4333;           39   
     808;   723.3086;           41   
     809;   724.1839;           35   
     810;   725.0592;           36   
     811;   725.9344;           40   
     812;   726.8097;           41   
     813;   727.6850;           40   
     814;   728.5603;           35   
     815;   729.4355;           37   
     816;   730.3108;           35   
     817;   731.1861;           38   
     818;   732.0614;           32   
     819;   732.9366;           46   
     820;   733.8119;           52   
     821;   734.6872;           44   
     822;   735.5625;           29   
     823;   736.4377;           46   
     824;   737.3130;           34   
     825;   738.1883;           39   
     826;   739.0636;           38   
     827;   739.9388;           37   
     828;   740.8141;           40   
     829;   741.6894;           41   
     830;   742.5647;           48   
     831;   743.4399;           45   
     832;   744.3152;           38   
     833;   745.1905;           35   
     834;   746.0658;           45   
     835;   746.9410;           44   
     836;   747.8163;           50   
     837;   748.6916;           33   
     838;   749.5669;           35   
     839;   750.4421;           39   
     840;   751.3174;           41   
     841;   752.1927;           39   
     842;   753.0680;           41   
     843;   753.9432;           40   
     844;   754.8185;           38   
     845;   755.6938;           46   
     846;   756.5691;           43   
     847;   757.4443;           42   
     848;   758.3196;           32   
     849;   759.1949;           38   
     850;   760.0702;           37   
     851;   760.9454;           41   
     852;   761.8207;           40   
     853;   762.6960;           47   
     854;   763.5713;           44   
     855;   764.4465;           42   
     856;   765.3218;           42   
     857;   766.1971;           32   
     858;   767.0724;           35   
     859;   767.9476;           37   
     860;   768.8229;           47   
     861;   769.6982;           45   
     862;   770.5735;           40   
     863;   771.4487;           40   
     864;   772.3240;           38   
     865;   773.1993;           32   
     866;   774.0746;           49   
     867;   774.9498;           42   
     868;   775.8251;           43   
     869;   776.7004;           28   
     870;   777.5757;           40   
     871;   778.4509;           44   
     872;   779.3262;           49   
     873;   780.2015;           35   
     874;   781.0768;           43   
     875;   781.9520;           32   
     876;   782.8273;           43   
     877;   783.7026;           40   
     878;   784.5779;           42   
     879;   785.4531;           36   
     880;   786.3284;           34   
     881;   787.2037;           47   
     882;   788.0790;           40   
     883;   788.9542;           40   
     884;   789.8295;           42   
     885;   790.7048;           38   
     886;   791.5801;           32   
     887;   792.4553;           40   
     888;   793.3306;           34   
     889;   794.2059;           39   
     890;   795.0812;           47   
     891;   795.9564;           36   
     892;   796.8317;           56   
     893;   797.7070;           41   
     894;   798.5823;           39   
     895;   799.4575;           50   
     896;   800.3328;           42   
     897;   801.2081;           36   
     898;   802.0834;           45   
     899;   802.9586;           35   
     900;   803.8339;           43   
     901;   804.7092;           40   
     902;   805.5845;           50   
     903;   806.4597;           47   
     904;   807.3350;           38   
     905;   808.2103;           38   
     906;   809.0856;           44   
     907;   809.9608;           43   
     908;   810.8361;           47   
     909;   811.7114;           35   
     910;   812.5867;           35   
     911;   813.4619;           42   
     912;   814.3372;           33   
     913;   815.2125;           47   
     914;   816.0878;           51   
     915;   816.9631;           47   
     916;   817.8383;           41   
     917;   818.7136;           47   
     918;   819.5889;           35   
     919;   820.4642;           38   
     920;   821.3394;           27   
     921;   822.2147;           41   
     922;   823.0900;           52   
     923;   823.9653;           41   
     924;   824.8405;           35   
     925;   825.7158;           56   
     926;   826.5911;           33   
     927;   827.4664;           41   
     928;   828.3416;           40   
     929;   829.2169;           32   
     930;   830.0922;           36   
     931;   830.9675;           37   
     932;   831.8427;           40   
     933;   832.7180;           45   
     934;   833.5933;           44   
     935;   834.4686;           40   
     936;   835.3438;           58   
     937;   836.2191;           37   
     938;   837.0944;           40   
     939;   837.9697;           45   
     940;   838.8449;           44   
     941;   839.7202;           38   
     942;   840.5955;           46   
     943;   841.4708;           46   
     944;   842.3460;           42   
     945;   843.2213;           40   
     946;   844.0966;           51   
     947;   844.9719;           45   
     948;   845.8471;           36   
     949;   846.7224;           37   
     950;   847.5977;           43   
     951;   848.4730;           51   
     952;   849.3482;           40   
     953;   850.2235;           41   
     954;   851.0988;           48   
     955;   851.9741;           39   
     956;   852.8493;           30   
     957;   853.7246;           39   
     958;   854.5999;           32   
     959;   855.4752;           37   
     960;   856.3504;           50   
     961;   857.2257;           46   
     962;   858.1010;           37   
     963;   858.9763;           44   
     964;   859.8515;           44   
     965;   860.7268;           52   
     966;   861.6021;           43   
     967;   862.4774;           51   
     968;   863.3526;           39   
     969;   864.2279;           39   
     970;   865.1032;           41   
     971;   865.9785;           41   
     972;   866.8537;           40   
     973;   867.7290;           45   
     974;   868.6043;           38   
     975;   869.4796;           51   
     976;   870.3548;           43   
     977;   871.2301;           42   
     978;   872.1054;           42   
     979;   872.9807;           56   
     980;   873.8559;           48   
     981;   874.7312;           40   
     982;   875.6065;           37   
     983;   876.4818;           38   
     984;   877.3570;           26   
     985;   878.2323;           41   
     986;   879.1076;           38   
     987;   879.9829;           49   
     988;   880.8581;           44   
     989;   881.7334;           40   
     990;   882.6087;           46   
     991;   883.4840;           36   
     992;   884.3592;           44   
     993;   885.2345;           38   
     994;   886.1098;           42   
     995;   886.9851;           39   
     996;   887.8603;           38   
     997;   888.7356;           41   
     998;   889.6109;           36   
     999;   890.4862;           36   
    1000;   891.3614;           48   
    1001;   892.2367;           46   
    1002;   893.1120;           46   
    1003;   893.9873;           49   
    1004;   894.8625;           48   
    1005;   895.7378;           39   
    1006;   896.6131;           50   
    1007;   897.4884;           39   
    1008;   898.3636;           42   
    1009;   899.2389;           46   
    1010;   900.1142;           39   
    1011;   900.9895;           61   
    1012;   901.8647;           43   
    1013;   902.7400;           52   
    1014;   903.6153;           43   
    1015;   904.4906;           49   
    1016;   905.3658;           51   
    1017;   906.2411;           46   
    1018;   907.1164;           55   
    1019;   907.9917;           43   
    1020;   908.8669;           36   
    1021;   909.7422;           45   
    1022;   910.6175;           51   
    1023;   911.4928;           39   
    1024;   912.3680;           44   
    1025;   913.2433;           47   
    1026;   914.1186;           46   
    1027;   914.9939;           47   
    1028;   915.8691;           45   
    1029;   916.7444;           56   
    1030;   917.6197;           49   
    1031;   918.4950;           42   
    1032;   919.3702;           38   
    1033;   920.2455;           38   
    1034;   921.1208;           46   
    1035;   921.9961;           48   
    1036;   922.8713;           54   
    1037;   923.7466;           75   
    1038;   924.6219;           77   
    1039;   925.4972;           47   
    1040;   926.3724;           44   
    1041;   927.2477;           50   
    1042;   928.1230;           47   
    1043;   928.9983;           50   
    1044;   929.8735;           55   
    1045;   930.7488;           47   
    1046;   931.6241;           45   
    1047;   932.4994;           37   
    1048;   933.3746;           45   
    1049;   934.2499;           47   
    1050;   935.1252;           51   
    1051;   936.0005;           46   
    1052;   936.8757;           42   
    1053;   937.7510;           35   
    1054;   938.6263;           61   
    1055;   939.5016;           49   
    1056;   940.3768;           47   
    1057;   941.2521;           41   
    1058;   942.1274;           51   
    1059;   943.0027;           51   
    1060;   943.8779;           43   
    1061;   944.7532;           40   
    1062;   945.6285;           41   
    1063;   946.5038;           49   
    1064;   947.3790;           62   
    1065;   948.2543;           75   
    1066;   949.1296;           52   
    1067;   950.0049;           39   
    1068;   950.8801;           43   
    1069;   951.7554;           44   
    1070;   952.6307;           57   
    1071;   953.5060;           44   
    1072;   954.3812;           48   
    1073;   955.2565;           40   
    1074;   956.1318;           50   
    1075;   957.0071;           64   
    1076;   957.8823;           54   
    1077;   958.7576;           58   
    1078;   959.6329;           47   
    1079;   960.5082;           43   
    1080;   961.3834;           51   
    1081;   962.2587;           39   
    1082;   963.1340;           45   
    1083;   964.0093;           39   
    1084;   964.8845;           46   
    1085;   965.7598;           46   
    1086;   966.6351;           48   
    1087;   967.5104;           42   
    1088;   968.3856;           47   
    1089;   969.2609;           58   
    1090;   970.1362;           58   
    1091;   971.0115;           47   
    1092;   971.8867;           39   
    1093;   972.7620;           47   
    1094;   973.6373;           46   
    1095;   974.5126;           51   
    1096;   975.3878;           62   
    1097;   976.2631;           52   
    1098;   977.1384;           68   
    1099;   978.0137;           64   
    1100;   978.8889;           42   
    1101;   979.7642;           46   
    1102;   980.6395;           67   
    1103;   981.5148;           50   
    1104;   982.3900;           55   
    1105;   983.2653;           65   
    1106;   984.1406;           60   
    1107;   985.0159;           54   
    1108;   985.8911;           56   
    1109;   986.7664;           53   
    1110;   987.6417;           53   
    1111;   988.5170;           53   
    1112;   989.3922;           54   
    1113;   990.2675;           60   
    1114;   991.1428;           48   
    1115;   992.0181;           57   
    1116;   992.8933;           59   
    1117;   993.7686;           62   
    1118;   994.6439;           67   
    1119;   995.5192;           53   
    1120;   996.3944;           57   
    1121;   997.2697;           60   
    1122;   998.1450;           54   
    1123;   999.0203;           47   
    1124;   999.8955;           58   
    1125;  1000.7708;           73   
    1126;  1001.6461;           59   
    1127;  1002.5214;           53   
    1128;  1003.3966;           61   
    1129;  1004.2719;           53   
    1130;  1005.1472;           82   
    1131;  1006.0225;           56   
    1132;  1006.8977;           64   
    1133;  1007.7730;           55   
    1134;  1008.6483;           66   
    1135;  1009.5236;           72   
    1136;  1010.3988;           56   
    1137;  1011.2741;           51   
    1138;  1012.1494;           59   
    1139;  1013.0247;           75   
    1140;  1013.8999;           58   
    1141;  1014.7752;           67   
    1142;  1015.6505;           64   
    1143;  1016.5258;           70   
    1144;  1017.4010;           69   
    1145;  1018.2763;           60   
    1146;  1019.1516;           66   
    1147;  1020.0269;           45   
    1148;  1020.9021;           68   
    1149;  1021.7774;           41   
    1150;  1022.6527;           80   
    1151;  1023.5280;           70   
    1152;  1024.4032;           71   
    1153;  1025.2785;           74   
    1154;  1026.1538;           69   
    1155;  1027.0291;           52   
    1156;  1027.9043;           76   
    1157;  1028.7796;           62   
    1158;  1029.6549;           59   
    1159;  1030.5302;           65   
    1160;  1031.4054;           70   
    1161;  1032.2807;           62   
    1162;  1033.1560;           71   
    1163;  1034.0313;           73   
    1164;  1034.9065;           73   
    1165;  1035.7818;           65   
    1166;  1036.6571;           60   
    1167;  1037.5324;           75   
    1168;  1038.4076;           70   
    1169;  1039.2829;           76   
    1170;  1040.1582;           64   
    1171;  1041.0335;           70   
    1172;  1041.9087;           91   
    1173;  1042.7840;           82   
    1174;  1043.6593;           46   
    1175;  1044.5346;           61   
    1176;  1045.4098;           68   
    1177;  1046.2851;           76   
    1178;  1047.1604;           80   
    1179;  1048.0357;           65   
    1180;  1048.9109;           63   
    1181;  1049.7862;           75   
    1182;  1050.6615;           80   
    1183;  1051.5368;           62   
    1184;  1052.4120;           75   
    1185;  1053.2873;           81   
    1186;  1054.1626;           88   
    1187;  1055.0379;           91   
    1188;  1055.9131;           60   
    1189;  1056.7884;           66   
    1190;  1057.6637;           78   
    1191;  1058.5390;           65   
    1192;  1059.4142;           74   
    1193;  1060.2895;           73   
    1194;  1061.1648;           80   
    1195;  1062.0401;           72   
    1196;  1062.9153;           71   
    1197;  1063.7906;           83   
    1198;  1064.6659;           99   
    1199;  1065.5412;           89   
    1200;  1066.4164;           83   
    1201;  1067.2917;           64   
    1202;  1068.1670;           79   
    1203;  1069.0423;           61   
    1204;  1069.9175;           83   
    1205;  1070.7928;           74   
    1206;  1071.6681;           67   
    1207;  1072.5434;           70   
    1208;  1073.4186;           69   
    1209;  1074.2939;           71   
    1210;  1075.1692;           70   
    1211;  1076.0445;           58   
    1212;  1076.9197;           74   
    1213;  1077.7950;           60   
    1214;  1078.6703;           55   
    1215;  1079.5456;           73   
    1216;  1080.4208;           69   
    1217;  1081.2961;           44   
    1218;  1082.1714;           45   
    1219;  1083.0467;           49   
    1220;  1083.9219;           55   
    1221;  1084.7972;           43   
    1222;  1085.6725;           46   
    1223;  1086.5478;           48   
    1224;  1087.4230;           45   
    1225;  1088.2983;           48   
    1226;  1089.1736;           40   
    1227;  1090.0489;           47   
    1228;  1090.9241;           49   
    1229;  1091.7994;           40   
    1230;  1092.6747;           63   
    1231;  1093.5500;           42   
    1232;  1094.4252;           57   
    1233;  1095.3005;           44   
    1234;  1096.1758;           46   
    1235;  1097.0511;           42   
    1236;  1097.9263;           27   
    1237;  1098.8016;           43   
    1238;  1099.6769;           44   
    1239;  1100.5522;           39   
    1240;  1101.4274;           47   
    1241;  1102.3027;           51   
    1242;  1103.1780;           40   
    1243;  1104.0533;           35   
    1244;  1104.9285;           43   
    1245;  1105.8038;           32   
    1246;  1106.6791;           48   
    1247;  1107.5544;           30   
    1248;  1108.4296;           32   
    1249;  1109.3049;           29   
    1250;  1110.1802;           42   
    1251;  1111.0555;           36   
    1252;  1111.9307;           46   
    1253;  1112.8060;           40   
    1254;  1113.6813;           42   
    1255;  1114.5566;           39   
    1256;  1115.4318;           40   
    1257;  1116.3071;           48   
    1258;  1117.1824;           20   
    1259;  1118.0577;           36   
    1260;  1118.9329;           38   
    1261;  1119.8082;           28   
    1262;  1120.6835;           31   
    1263;  1121.5588;           44   
    1264;  1122.4340;           35   
    1265;  1123.3093;           31   
    1266;  1124.1846;           32   
    1267;  1125.0599;           39   
    1268;  1125.9351;           26   
    1269;  1126.8104;           35   
    1270;  1127.6857;           29   
    1271;  1128.5610;           34   
    1272;  1129.4362;           26   
    1273;  1130.3115;           31   
    1274;  1131.1868;           28   
    1275;  1132.0621;           23   
    1276;  1132.9373;           37   
    1277;  1133.8126;           39   
    1278;  1134.6879;           39   
    1279;  1135.5632;           39   
    1280;  1136.4384;           50   
    1281;  1137.3137;           37   
    1282;  1138.1890;           28   
    1283;  1139.0643;           29   
    1284;  1139.9395;           29   
    1285;  1140.8148;           28   
    1286;  1141.6901;           35   
    1287;  1142.5654;           35   
    1288;  1143.4406;           43   
    1289;  1144.3159;           33   
    1290;  1145.1912;           26   
    1291;  1146.0665;           27   
    1292;  1146.9417;           29   
    1293;  1147.8170;           32   
    1294;  1148.6923;           32   
    1295;  1149.5676;           21   
    1296;  1150.4428;           32   
    1297;  1151.3181;           32   
    1298;  1152.1934;           19   
    1299;  1153.0687;           33   
    1300;  1153.9439;           29   
    1301;  1154.8192;           24   
    1302;  1155.6945;           16   
    1303;  1156.5698;           27   
    1304;  1157.4450;           23   
    1305;  1158.3203;           20   
    1306;  1159.1956;           25   
    1307;  1160.0709;           28   
    1308;  1160.9461;           18   
    1309;  1161.8214;           15   
    1310;  1162.6967;           23   
    1311;  1163.5720;           25   
    1312;  1164.4472;           15   
    1313;  1165.3225;           28   
    1314;  1166.1978;           31   
    1315;  1167.0731;           22   
    1316;  1167.9483;           23   
    1317;  1168.8236;           34   
    1318;  1169.6989;           19   
    1319;  1170.5742;           20   
    1320;  1171.4494;           27   
    1321;  1172.3247;           16   
    1322;  1173.2000;           17   
    1323;  1174.0753;           12   
    1324;  1174.9505;           19   
    1325;  1175.8258;           20   
    1326;  1176.7011;           21   
    1327;  1177.5764;           18   
    1328;  1178.4516;           22   
    1329;  1179.3269;           27   
    1330;  1180.2022;           23   
    1331;  1181.0775;           23   
    1332;  1181.9527;           20   
    1333;  1182.8280;           12   
    1334;  1183.7033;           19   
    1335;  1184.5786;           22   
    1336;  1185.4538;           13   
    1337;  1186.3291;           14   
    1338;  1187.2044;           18   
    1339;  1188.0797;           24   
    1340;  1188.9549;           19   
    1341;  1189.8302;           22   
    1342;  1190.7055;           13   
    1343;  1191.5808;           10   
    1344;  1192.4560;           18   
    1345;  1193.3313;           11   
    1346;  1194.2066;           19   
    1347;  1195.0819;           14   
    1348;  1195.9571;           23   
    1349;  1196.8324;           12   
    1350;  1197.7077;           18   
    1351;  1198.5830;           12   
    1352;  1199.4582;           14   
    1353;  1200.3335;           12   
    1354;  1201.2088;           16   
    1355;  1202.0841;           13   
    1356;  1202.9593;           11   
    1357;  1203.8346;           13   
    1358;  1204.7099;           27   
    1359;  1205.5852;           12   
    1360;  1206.4604;           10   
    1361;  1207.3357;           11   
    1362;  1208.2110;           11   
    1363;  1209.0863;           16   
    1364;  1209.9615;           12   
    1365;  1210.8368;           11   
    1366;  1211.7121;           19   
    1367;  1212.5874;           14   
    1368;  1213.4626;           19   
    1369;  1214.3379;           10   
    1370;  1215.2132;           10   
    1371;  1216.0885;            7   
    1372;  1216.9637;           13   
    1373;  1217.8390;           10   
    1374;  1218.7143;           15   
    1375;  1219.5896;            9   
    1376;  1220.4648;           11   
    1377;  1221.3401;           14   
    1378;  1222.2154;            9   
    1379;  1223.0907;           15   
    1380;  1223.9659;           12   
    1381;  1224.8412;           12   
    1382;  1225.7165;           12   
    1383;  1226.5918;           12   
    1384;  1227.4670;           20   
    1385;  1228.3423;           19   
    1386;  1229.2176;           15   
    1387;  1230.0929;           12   
    1388;  1230.9681;           12   
    1389;  1231.8434;           20   
    1390;  1232.7187;           12   
    1391;  1233.5940;           13   
    1392;  1234.4692;           10   
    1393;  1235.3445;           11   
    1394;  1236.2198;           17   
    1395;  1237.0951;           19   
    1396;  1237.9703;            7   
    1397;  1238.8456;           12   
    1398;  1239.7209;           14   
    1399;  1240.5962;           16   
    1400;  1241.4714;            8   
    1401;  1242.3467;           15   
    1402;  1243.2220;            7   
    1403;  1244.0973;           15   
    1404;  1244.9725;           11   
    1405;  1245.8478;            8   
    1406;  1246.7231;           15   
    1407;  1247.5984;            5   
    1408;  1248.4736;            7   
    1409;  1249.3489;           17   
    1410;  1250.2242;            7   
    1411;  1251.0995;           15   
    1412;  1251.9747;           13   
    1413;  1252.8500;            8   
    1414;  1253.7253;           10   
    1415;  1254.6006;           20   
    1416;  1255.4758;           14   
    1417;  1256.3511;           15   
    1418;  1257.2264;           14   
    1419;  1258.1017;            9   
    1420;  1258.9769;            9   
    1421;  1259.8522;            6   
    1422;  1260.7275;            7   
    1423;  1261.6028;           13   
    1424;  1262.4780;           11   
    1425;  1263.3533;            4   
    1426;  1264.2286;           15   
    1427;  1265.1039;           13   
    1428;  1265.9791;           11   
    1429;  1266.8544;           12   
    1430;  1267.7297;           10   
    1431;  1268.6050;            8   
    1432;  1269.4802;           11   
    1433;  1270.3555;           13   
    1434;  1271.2308;            6   
    1435;  1272.1061;           10   
    1436;  1272.9813;           14   
    1437;  1273.8566;           10   
    1438;  1274.7319;           10   
    1439;  1275.6072;           10   
    1440;  1276.4824;            8   
    1441;  1277.3577;            8   
    1442;  1278.2330;           15   
    1443;  1279.1083;            9   
    1444;  1279.9835;           11   
    1445;  1280.8588;           10   
    1446;  1281.7341;            9   
    1447;  1282.6094;           10   
    1448;  1283.4846;           14   
    1449;  1284.3599;           14   
    1450;  1285.2352;           18   
    1451;  1286.1105;            8   
    1452;  1286.9857;           20   
    1453;  1287.8610;           40   
    1454;  1288.7363;          223   
    1455;  1289.6116;          897   
    1456;  1290.4868;         2347   
    1457;  1291.3621;         3260   
    1458;  1292.2374;         2186   
    1459;  1293.1127;          691   
    1460;  1293.9879;          124   
    1461;  1294.8632;           26   
    1462;  1295.7385;           11   
    1463;  1296.6138;           17   
    1464;  1297.4890;           14   
    1465;  1298.3643;           16   
    1466;  1299.2396;            6   
    1467;  1300.1149;           12   
    1468;  1300.9901;            6   
    1469;  1301.8654;           10   
    1470;  1302.7407;            9   
    1471;  1303.6160;            9   
    1472;  1304.4912;            6   
    1473;  1305.3665;            5   
    1474;  1306.2418;            8   
    1475;  1307.1171;            7   
    1476;  1307.9923;            9   
    1477;  1308.8676;            6   
    1478;  1309.7429;           11   
    1479;  1310.6182;            9   
    1480;  1311.4934;            6   
    1481;  1312.3687;            6   
    1482;  1313.2440;            7   
    1483;  1314.1193;            6   
    1484;  1314.9945;            9   
    1485;  1315.8698;            6   
    1486;  1316.7451;            6   
    1487;  1317.6204;            5   
    1488;  1318.4956;            6   
    1489;  1319.3709;            3   
    1490;  1320.2462;            8   
    1491;  1321.1215;            4   
    1492;  1321.9967;            8   
    1493;  1322.8720;           11   
    1494;  1323.7473;            6   
    1495;  1324.6226;            3   
    1496;  1325.4978;            5   
    1497;  1326.3731;            5   
    1498;  1327.2484;            4   
    1499;  1328.1237;            6   
    1500;  1328.9989;            6   
    1501;  1329.8742;            6   
    1502;  1330.7495;            4   
    1503;  1331.6248;            3   
    1504;  1332.5000;            7   
    1505;  1333.3753;            3   
    1506;  1334.2506;            1   
    1507;  1335.1259;            5   
    1508;  1336.0011;            7   
    1509;  1336.8764;            5   
    1510;  1337.7517;            6   
    1511;  1338.6270;            7   
    1512;  1339.5022;           10   
    1513;  1340.3775;            4   
    1514;  1341.2528;            7   
    1515;  1342.1281;            4   
    1516;  1343.0033;            3   
    1517;  1343.8786;            8   
    1518;  1344.7539;            4   
    1519;  1345.6292;            5   
    1520;  1346.5044;            3   
    1521;  1347.3797;            5   
    1522;  1348.2550;            5   
    1523;  1349.1303;            4   
    1524;  1350.0055;            4   
    1525;  1350.8808;            8   
    1526;  1351.7561;            4   
    1527;  1352.6314;            5   
    1528;  1353.5066;            6   
    1529;  1354.3819;            5   
    1530;  1355.2572;            2   
    1531;  1356.1325;            3   
    1532;  1357.0077;            4   
    1533;  1357.8830;            3   
    1534;  1358.7583;            2   
    1535;  1359.6336;            2   
    1536;  1360.5088;            6   
    1537;  1361.3841;            5   
    1538;  1362.2594;            2   
    1539;  1363.1347;            5   
    1540;  1364.0099;            5   
    1541;  1364.8852;            5   
    1542;  1365.7605;            3   
    1543;  1366.6358;            7   
    1544;  1367.5110;            8   
    1545;  1368.3863;            6   
    1546;  1369.2616;            5   
    1547;  1370.1369;            1   
    1548;  1371.0121;            5   
    1549;  1371.8874;            2   
    1550;  1372.7627;            5   
    1551;  1373.6380;            6   
    1552;  1374.5132;            6   
    1553;  1375.3885;            6   
    1554;  1376.2638;            9   
    1555;  1377.1391;            6   
    1556;  1378.0143;            0   
    1557;  1378.8896;            4   
    1558;  1379.7649;            5   
    1559;  1380.6402;            3   
    1560;  1381.5154;            0   
    1561;  1382.3907;            3   
    1562;  1383.2660;            2   
    1563;  1384.1413;            2   
    1564;  1385.0165;            4   
    1565;  1385.8918;            2   
    1566;  1386.7671;            5   
    1567;  1387.6424;            4   
    1568;  1388.5176;            5   
    1569;  1389.3929;            4   
    1570;  1390.2682;            3   
    1571;  1391.1435;            1   
    1572;  1392.0187;            6   
    1573;  1392.8940;            3   
    1574;  1393.7693;            6   
    1575;  1394.6446;            4   
    1576;  1395.5198;           10   
    1577;  1396.3951;            7   
    1578;  1397.2704;            3   
    1579;  1398.1457;            5   
    1580;  1399.0209;            5   
    1581;  1399.8962;            3   
    1582;  1400.7715;            2   
    1583;  1401.6468;            3   
    1584;  1402.5220;            3   
    1585;  1403.3973;            5   
    1586;  1404.2726;            3   
    1587;  1405.1479;            5   
    1588;  1406.0231;            4   
    1589;  1406.8984;            4   
    1590;  1407.7737;            2   
    1591;  1408.6490;            3   
    1592;  1409.5242;            4   
    1593;  1410.3995;            1   
    1594;  1411.2748;            5   
    1595;  1412.1501;            6   
    1596;  1413.0253;            5   
    1597;  1413.9006;            1   
    1598;  1414.7759;            2   
    1599;  1415.6512;            1   
    1600;  1416.5264;            3   
    1601;  1417.4017;            0   
    1602;  1418.2770;            1   
    1603;  1419.1523;            6   
    1604;  1420.0275;            1   
    1605;  1420.9028;            5   
    1606;  1421.7781;            3   
    1607;  1422.6534;            3   
    1608;  1423.5286;            5   
    1609;  1424.4039;            2   
    1610;  1425.2792;            6   
    1611;  1426.1545;            5   
    1612;  1427.0297;            3   
    1613;  1427.9050;            3   
    1614;  1428.7803;            4   
    1615;  1429.6556;            0   
    1616;  1430.5308;            0   
    1617;  1431.4061;            4   
    1618;  1432.2814;            1   
    1619;  1433.1567;            3   
    1620;  1434.0319;            2   
    1621;  1434.9072;            4   
    1622;  1435.7825;            1   
    1623;  1436.6578;            1   
    1624;  1437.5330;            3   
    1625;  1438.4083;            3   
    1626;  1439.2836;            6   
    1627;  1440.1589;            1   
    1628;  1441.0341;            3   
    1629;  1441.9094;            0   
    1630;  1442.7847;            3   
    1631;  1443.6600;            4   
    1632;  1444.5352;            2   
    1633;  1445.4105;            1   
    1634;  1446.2858;            3   
    1635;  1447.1611;            5   
    1636;  1448.0363;            4   
    1637;  1448.9116;            5   
    1638;  1449.7869;            2   
    1639;  1450.6622;            2   
    1640;  1451.5374;            2   
    1641;  1452.4127;            5   
    1642;  1453.2880;            4   
    1643;  1454.1633;            3   
    1644;  1455.0385;            2   
    1645;  1455.9138;            7   
    1646;  1456.7891;            2   
    1647;  1457.6644;            3   
    1648;  1458.5396;            3   
    1649;  1459.4149;            4   
    1650;  1460.2902;            3   
    1651;  1461.1655;            3   
    1652;  1462.0407;            2   
    1653;  1462.9160;            2   
    1654;  1463.7913;            3   
    1655;  1464.6666;            4   
    1656;  1465.5418;            4   
    1657;  1466.4171;            1   
    1658;  1467.2924;            2   
    1659;  1468.1677;            4   
    1660;  1469.0429;            3   
    1661;  1469.9182;            1   
    1662;  1470.7935;            5   
    1663;  1471.6688;            1   
    1664;  1472.5440;            7   
    1665;  1473.4193;            2   
    1666;  1474.2946;            2   
    1667;  1475.1699;            6   
    1668;  1476.0451;            9   
    1669;  1476.9204;           23   
    1670;  1477.7957;           72   
    1671;  1478.6710;          166   
    1672;  1479.5462;          200   
    1673;  1480.4215;          134   
    1674;  1481.2968;           46   
    1675;  1482.1721;           11   
    1676;  1483.0473;            8   
    1677;  1483.9226;            3   
    1678;  1484.7979;            1   
    1679;  1485.6732;            3   
    1680;  1486.5484;            4   
    1681;  1487.4237;            1   
    1682;  1488.2990;            3   
    1683;  1489.1743;            3   
    1684;  1490.0495;            1   
    1685;  1490.9248;            4   
    1686;  1491.8001;            0   
    1687;  1492.6754;            2   
    1688;  1493.5506;            2   
    1689;  1494.4259;            2   
    1690;  1495.3012;            1   
    1691;  1496.1765;            3   
    1692;  1497.0517;            0   
    1693;  1497.9270;            3   
    1694;  1498.8023;            2   
    1695;  1499.6776;            2   
    1696;  1500.5528;            6   
    1697;  1501.4281;            3   
    1698;  1502.3034;            0   
    1699;  1503.1787;            2   
    1700;  1504.0539;            2   
    1701;  1504.9292;            1   
    1702;  1505.8045;            1   
    1703;  1506.6798;            0   
    1704;  1507.5550;            1   
    1705;  1508.4303;            2   
    1706;  1509.3056;            3   
    1707;  1510.1809;            1   
    1708;  1511.0561;            1   
    1709;  1511.9314;            3   
    1710;  1512.8067;            5   
    1711;  1513.6820;            2   
    1712;  1514.5572;            4   
    1713;  1515.4325;            2   
    1714;  1516.3078;            5   
    1715;  1517.1831;            0   
    1716;  1518.0583;            0   
    1717;  1518.9336;            2   
    1718;  1519.8089;            3   
    1719;  1520.6842;            1   
    1720;  1521.5594;            2   
    1721;  1522.4347;            4   
    1722;  1523.3100;            2   
    1723;  1524.1853;            3   
    1724;  1525.0605;            2   
    1725;  1525.9358;            1   
    1726;  1526.8111;            3   
    1727;  1527.6864;            2   
    1728;  1528.5616;            5   
    1729;  1529.4369;            5   
    1730;  1530.3122;            6   
    1731;  1531.1875;            2   
    1732;  1532.0627;            1   
    1733;  1532.9380;            2   
    1734;  1533.8133;            1   
    1735;  1534.6886;            2   
    1736;  1535.5638;            2   
    1737;  1536.4391;            1   
    1738;  1537.3144;            2   
    1739;  1538.1897;            2   
    1740;  1539.0649;            2   
    1741;  1539.9402;            1   
    1742;  1540.8155;            4   
    1743;  1541.6908;            1   
    1744;  1542.5660;            3   
    1745;  1543.4413;            4   
    1746;  1544.3166;            3   
    1747;  1545.1919;            4   
    1748;  1546.0671;            1   
    1749;  1546.9424;            2   
    1750;  1547.8177;            2   
    1751;  1548.6930;            5   
    1752;  1549.5682;            2   
    1753;  1550.4435;            1   
    1754;  1551.3188;            5   
    1755;  1552.1941;            3   
    1756;  1553.0693;            1   
    1757;  1553.9446;            0   
    1758;  1554.8199;            2   
    1759;  1555.6952;            1   
    1760;  1556.5704;            2   
    1761;  1557.4457;            3   
    1762;  1558.3210;            0   
    1763;  1559.1963;            2   
    1764;  1560.0715;            3   
    1765;  1560.9468;            2   
    1766;  1561.8221;            0   
    1767;  1562.6974;            3   
    1768;  1563.5726;            1   
    1769;  1564.4479;            0   
    1770;  1565.3232;            2   
    1771;  1566.1985;            3   
    1772;  1567.0737;            3   
    1773;  1567.9490;            2   
    1774;  1568.8243;            2   
    1775;  1569.6996;            3   
    1776;  1570.5748;            0   
    1777;  1571.4501;            3   
    1778;  1572.3254;            4   
    1779;  1573.2007;            1   
    1780;  1574.0759;            2   
    1781;  1574.9512;            1   
    1782;  1575.8265;            1   
    1783;  1576.7018;            2   
    1784;  1577.5770;            0   
    1785;  1578.4523;            2   
    1786;  1579.3276;            1   
    1787;  1580.2029;            2   
    1788;  1581.0781;            1   
    1789;  1581.9534;            1   
    1790;  1582.8287;            3   
    1791;  1583.7040;            1   
    1792;  1584.5792;            4   
    1793;  1585.4545;            1   
    1794;  1586.3298;            2   
    1795;  1587.2051;            2   
    1796;  1588.0803;            2   
    1797;  1588.9556;            1   
    1798;  1589.8309;            0   
    1799;  1590.7062;            0   
    1800;  1591.5814;            0   
    1801;  1592.4567;            0   
    1802;  1593.3320;            4   
    1803;  1594.2073;            3   
    1804;  1595.0825;            1   
    1805;  1595.9578;            1   
    1806;  1596.8331;            2   
    1807;  1597.7084;            1   
    1808;  1598.5836;            0   
    1809;  1599.4589;            1   
    1810;  1600.3342;            0   
    1811;  1601.2095;            2   
    1812;  1602.0847;            3   
    1813;  1602.9600;            3   
    1814;  1603.8353;            1   
    1815;  1604.7106;            1   
    1816;  1605.5858;            1   
    1817;  1606.4611;            3   
    1818;  1607.3364;            3   
    1819;  1608.2117;            9   
    1820;  1609.0869;            1   
    1821;  1609.9622;            3   
    1822;  1610.8375;            2   
    1823;  1611.7128;            2   
    1824;  1612.5880;            0   
    1825;  1613.4633;            1   
    1826;  1614.3386;            5   
    1827;  1615.2139;            1   
    1828;  1616.0891;            0   
    1829;  1616.9644;            1   
    1830;  1617.8397;            1   
    1831;  1618.7150;            0   
    1832;  1619.5902;            0   
    1833;  1620.4655;            1   
    1834;  1621.3408;            1   
    1835;  1622.2161;            3   
    1836;  1623.0913;            0   
    1837;  1623.9666;            0   
    1838;  1624.8419;            1   
    1839;  1625.7172;            1   
    1840;  1626.5924;            1   
    1841;  1627.4677;            2   
    1842;  1628.3430;            1   
    1843;  1629.2183;            1   
    1844;  1630.0935;            2   
    1845;  1630.9688;            1   
    1846;  1631.8441;            5   
    1847;  1632.7194;            2   
    1848;  1633.5946;            0   
    1849;  1634.4699;            3   
    1850;  1635.3452;            0   
    1851;  1636.2205;            2   
    1852;  1637.0957;            1   
    1853;  1637.9710;            0   
    1854;  1638.8463;            3   
    1855;  1639.7216;            0   
    1856;  1640.5968;            1   
    1857;  1641.4721;            4   
    1858;  1642.3474;            1   
    1859;  1643.2227;            2   
    1860;  1644.0979;            1   
    1861;  1644.9732;            1   
    1862;  1645.8485;            1   
    1863;  1646.7238;            1   
    1864;  1647.5990;            2   
    1865;  1648.4743;            0   
    1866;  1649.3496;            1   
    1867;  1650.2249;            6   
    1868;  1651.1001;            3   
    1869;  1651.9754;            1   
    1870;  1652.8507;            2   
    1871;  1653.7260;            4   
    1872;  1654.6012;            1   
    1873;  1655.4765;            1   
    1874;  1656.3518;            1   
    1875;  1657.2271;            2   
    1876;  1658.1023;            1   
    1877;  1658.9776;            1   
    1878;  1659.8529;            1   
    1879;  1660.7282;            0   
    1880;  1661.6034;            2   
    1881;  1662.4787;            2   
    1882;  1663.3540;            1   
    1883;  1664.2293;            2   
    1884;  1665.1045;            2   
    1885;  1665.9798;            2   
    1886;  1666.8551;            1   
    1887;  1667.7304;            1   
    1888;  1668.6056;            1   
    1889;  1669.4809;            1   
    1890;  1670.3562;            0   
    1891;  1671.2315;            0   
    1892;  1672.1067;            1   
    1893;  1672.9820;            1   
    1894;  1673.8573;            2   
    1895;  1674.7326;            1   
    1896;  1675.6078;            1   
    1897;  1676.4831;            0   
    1898;  1677.3584;            3   
    1899;  1678.2337;            1   
    1900;  1679.1089;            1   
    1901;  1679.9842;            0   
    1902;  1680.8595;            2   
    1903;  1681.7348;            4   
    1904;  1682.6100;            1   
    1905;  1683.4853;            0   
    1906;  1684.3606;            2   
    1907;  1685.2359;            1   
    1908;  1686.1111;            2   
    1909;  1686.9864;            1   
    1910;  1687.8617;            3   
    1911;  1688.7370;            1   
    1912;  1689.6122;            1   
    1913;  1690.4875;            2   
    1914;  1691.3628;            3   
    1915;  1692.2381;            0   
    1916;  1693.1133;            1   
    1917;  1693.9886;            2   
    1918;  1694.8639;            0   
    1919;  1695.7392;            1   
    1920;  1696.6144;            1   
    1921;  1697.4897;            1   
    1922;  1698.3650;            2   
    1923;  1699.2403;            2   
    1924;  1700.1155;            1   
    1925;  1700.9908;            2   
    1926;  1701.8661;            2   
    1927;  1702.7414;            1   
    1928;  1703.6166;            1   
    1929;  1704.4919;            3   
    1930;  1705.3672;            2   
    1931;  1706.2425;            1   
    1932;  1707.1177;            1   
    1933;  1707.9930;            1   
    1934;  1708.8683;            1   
    1935;  1709.7436;            1   
    1936;  1710.6188;            1   
    1937;  1711.4941;            0   
    1938;  1712.3694;            0   
    1939;  1713.2447;            1   
    1940;  1714.1199;            0   
    1941;  1714.9952;            0   
    1942;  1715.8705;            1   
    1943;  1716.7458;            2   
    1944;  1717.6210;            2   
    1945;  1718.4963;            0   
    1946;  1719.3716;            0   
    1947;  1720.2469;            1   
    1948;  1721.1221;            0   
    1949;  1721.9974;            2   
    1950;  1722.8727;            0   
    1951;  1723.7480;            1   
    1952;  1724.6232;            1   
    1953;  1725.4985;            1   
    1954;  1726.3738;            1   
    1955;  1727.2491;            0   
    1956;  1728.1243;            1   
    1957;  1728.9996;            1   
    1958;  1729.8749;            3   
    1959;  1730.7502;            2   
    1960;  1731.6254;            1   
    1961;  1732.5007;            0   
    1962;  1733.3760;            0   
    1963;  1734.2513;            0   
    1964;  1735.1265;            3   
    1965;  1736.0018;            0   
    1966;  1736.8771;            1   
    1967;  1737.7524;            0   
    1968;  1738.6276;            1   
    1969;  1739.5029;            1   
    1970;  1740.3782;            1   
    1971;  1741.2535;            1   
    1972;  1742.1287;            1   
    1973;  1743.0040;            1   
    1974;  1743.8793;            1   
    1975;  1744.7546;            0   
    1976;  1745.6298;            0   
    1977;  1746.5051;            0   
    1978;  1747.3804;            1   
    1979;  1748.2557;            1   
    1980;  1749.1309;            0   
    1981;  1750.0062;            0   
    1982;  1750.8815;            0   
    1983;  1751.7568;            0   
    1984;  1752.6320;            0   
    1985;  1753.5073;            0   
    1986;  1754.3826;            0   
    1987;  1755.2579;            0   
    1988;  1756.1331;            0   
    1989;  1757.0084;            0   
    1990;  1757.8837;            0   
    1991;  1758.7590;            0   
    1992;  1759.6342;            0   
    1993;  1760.5095;            0   
    1994;  1761.3848;            0   
    1995;  1762.2601;            0   
    1996;  1763.1353;            0   
    1997;  1764.0106;            0   
    1998;  1764.8859;            0   
    1999;  1765.7612;            0   
    2000;  1766.6364;            0   
    2001;  1767.5117;            0   
    2002;  1768.3870;            0   
    2003;  1769.2623;            0   
    2004;  1770.1375;            0   
    2005;  1771.0128;            0   
    2006;  1771.8881;            0   
    2007;  1772.7634;            0   
    2008;  1773.6386;            0   
    2009;  1774.5139;            0   
    2010;  1775.3892;            0   
    2011;  1776.2645;            0   
    2012;  1777.1397;            0   
    2013;  1778.0150;            0   
    2014;  1778.8903;            0   
    2015;  1779.7656;            0   
    2016;  1780.6408;            0   
    2017;  1781.5161;            0   
    2018;  1782.3914;            0   
    2019;  1783.2667;            0   
    2020;  1784.1419;            0   
    2021;  1785.0172;            0   
    2022;  1785.8925;            0   
    2023;  1786.7678;            0   
    2024;  1787.6430;            0   
    2025;  1788.5183;            0   
    2026;  1789.3936;            0   
    2027;  1790.2689;            0   
    2028;  1791.1441;            0   
    2029;  1792.0194;            0   
    2030;  1792.8947;            0   
    2031;  1793.7700;            0   
    2032;  1794.6452;            0   
    2033;  1795.5205;            0   
    2034;  1796.3958;            0   
    2035;  1797.2711;            0   
    2036;  1798.1463;            0   
    2037;  1799.0216;            0   
    2038;  1799.8969;            0   
    2039;  1800.7722;            0   
    2040;  1801.6474;            0   
    2041;  1802.5227;            0   
    2042;  1803.3980;            0   
    2043;  1804.2733;            0   
    2044;  1805.1485;            0   
    2045;  1806.0238;            0   
    2046;  1806.8991;            0   
    2047;  1807.7744;            0   
    2048;  1808.6496;            0   
ROI Nummer; Anfangskanal; Endkanal; Anfangsenergie keV ; Endenergie keV; Nettoimpulse; Bruttoimpulse; Untergrundimpulse
In den Daten wurden keine Linien gefunden
ROI Nummer; prozentualer Fehler der Lage; Lage keV; FWHM keV; FWTM keV; FWTM/FWHM Verhltnis; H/L Verhltnis
No Peak records found in data.
Name; Energie keV; Flags; Aktivitt uCi/Unit; Aktivittsfehler %; NWG uCi/Unit; MDA Error %
Es wurden keine Nuklidergebnisse gefunden.
Name; Erwartete Endergie keV; Gemessene Energie keV; Differenz von erwarteter keV; FWHM; Flags; Aktivitt uCi/Unit; Aktivittsfehler %
Es wurden keine Nuklidergebnisse gefunden.
