Kanal;   Energie(keV); Impulse
       1;    16.9617;           84   
       2;    17.8370;           87   
       3;    18.7122;           81   
       4;    19.5875;           96   
       5;    20.4628;           90   
       6;    21.3381;           86   
       7;    22.2133;           72   
       8;    23.0886;           70   
       9;    23.9639;           66   
      10;    24.8392;           76   
      11;    25.7144;           65   
      12;    26.5897;           65   
      13;    27.4650;           71   
      14;    28.3403;           45   
      15;    29.2155;           59   
      16;    30.0908;           59   
      17;    30.9661;           51   
      18;    31.8414;           66   
      19;    32.7166;           51   
      20;    33.5919;           67   
      21;    34.4672;           71   
      22;    35.3425;           61   
      23;    36.2177;           73   
      24;    37.0930;           69   
      25;    37.9683;           58   
      26;    38.8436;           55   
      27;    39.7188;           54   
      28;    40.5941;           56   
      29;    41.4694;           57   
      30;    42.3447;           51   
      31;    43.2199;           42   
      32;    44.0952;           64   
      33;    44.9705;           36   
      34;    45.8458;           42   
      35;    46.7210;           42   
      36;    47.5963;           45   
      37;    48.4716;           39   
      38;    49.3469;           35   
      39;    50.2221;           34   
      40;    51.0974;           34   
      41;    51.9727;           32   
      42;    52.8480;           31   
      43;    53.7232;           39   
      44;    54.5985;           37   
      45;    55.4738;           40   
      46;    56.3491;           38   
      47;    57.2243;           38   
      48;    58.0996;           33   
      49;    58.9749;           32   
      50;    59.8502;           45   
      51;    60.7254;           45   
      52;    61.6007;           31   
      53;    62.4760;           50   
      54;    63.3513;           55   
      55;    64.2265;           37   
      56;    65.1018;           55   
      57;    65.9771;           47   
      58;    66.8524;           41   
      59;    67.7276;           59   
      60;    68.6029;           54   
      61;    69.4782;           55   
      62;    70.3535;           56   
      63;    71.2287;           51   
      64;    72.1040;           49   
      65;    72.9793;           68   
      66;    73.8546;          115   
      67;    74.7298;          189   
      68;    75.6051;          181   
      69;    76.4804;          224   
      70;    77.3557;          325   
      71;    78.2309;          110   
      72;    79.1062;           75   
      73;    79.9815;           58   
      74;    80.8568;           69   
      75;    81.7320;           70   
      76;    82.6073;           79   
      77;    83.4826;           62   
      78;    84.3579;           91   
      79;    85.2331;          103   
      80;    86.1084;          190   
      81;    86.9837;          218   
      82;    87.8590;          171   
      83;    88.7342;          142   
      84;    89.6095;          150   
      85;    90.4848;          134   
      86;    91.3601;          129   
      87;    92.2353;          128   
      88;    93.1106;          115   
      89;    93.9859;          112   
      90;    94.8612;           91   
      91;    95.7364;          118   
      92;    96.6117;          113   
      93;    97.4870;          105   
      94;    98.3623;          125   
      95;    99.2375;          104   
      96;   100.1128;          106   
      97;   100.9881;           97   
      98;   101.8634;          123   
      99;   102.7386;          121   
     100;   103.6139;           98   
     101;   104.4892;          110   
     102;   105.3645;          110   
     103;   106.2397;          104   
     104;   107.1150;           94   
     105;   107.9903;          108   
     106;   108.8656;          111   
     107;   109.7408;          114   
     108;   110.6161;          108   
     109;   111.4914;          117   
     110;   112.3667;           94   
     111;   113.2419;          134   
     112;   114.1172;          121   
     113;   114.9925;          139   
     114;   115.8678;          136   
     115;   116.7430;          132   
     116;   117.6183;          118   
     117;   118.4936;          128   
     118;   119.3689;          143   
     119;   120.2441;          120   
     120;   121.1194;          130   
     121;   121.9947;          163   
     122;   122.8700;         1038   
     123;   123.7452;         3977   
     124;   124.6205;         3282   
     125;   125.4958;          601   
     126;   126.3711;           72   
     127;   127.2463;           53   
     128;   128.1216;           59   
     129;   128.9969;           50   
     130;   129.8722;           74   
     131;   130.7474;           65   
     132;   131.6227;           48   
     133;   132.4980;           43   
     134;   133.3733;           63   
     135;   134.2485;           55   
     136;   135.1238;           56   
     137;   135.9991;           45   
     138;   136.8744;           97   
     139;   137.7496;          382   
     140;   138.6249;          582   
     141;   139.5002;          228   
     142;   140.3755;           73   
     143;   141.2507;           52   
     144;   142.1260;           40   
     145;   143.0013;           43   
     146;   143.8766;           49   
     147;   144.7518;           47   
     148;   145.6271;           50   
     149;   146.5024;           40   
     150;   147.3777;           50   
     151;   148.2529;           37   
     152;   149.1282;           42   
     153;   150.0035;           28   
     154;   150.8788;           38   
     155;   151.7540;           30   
     156;   152.6293;           32   
     157;   153.5046;           37   
     158;   154.3799;           43   
     159;   155.2551;           44   
     160;   156.1304;           44   
     161;   157.0057;           42   
     162;   157.8810;           30   
     163;   158.7562;           39   
     164;   159.6315;           32   
     165;   160.5068;           39   
     166;   161.3821;           46   
     167;   162.2573;           30   
     168;   163.1326;           42   
     169;   164.0079;           34   
     170;   164.8832;           52   
     171;   165.7584;           35   
     172;   166.6337;           34   
     173;   167.5090;           33   
     174;   168.3843;           34   
     175;   169.2595;           31   
     176;   170.1348;           45   
     177;   171.0101;           24   
     178;   171.8854;           31   
     179;   172.7606;           26   
     180;   173.6359;           39   
     181;   174.5112;           41   
     182;   175.3865;           40   
     183;   176.2617;           30   
     184;   177.1370;           38   
     185;   178.0123;           39   
     186;   178.8876;           41   
     187;   179.7628;           34   
     188;   180.6381;           33   
     189;   181.5134;           29   
     190;   182.3887;           33   
     191;   183.2639;           32   
     192;   184.1392;           29   
     193;   185.0145;           30   
     194;   185.8898;           37   
     195;   186.7650;           29   
     196;   187.6403;           23   
     197;   188.5156;           34   
     198;   189.3909;           38   
     199;   190.2661;           43   
     200;   191.1414;           31   
     201;   192.0167;           40   
     202;   192.8920;           31   
     203;   193.7672;           37   
     204;   194.6425;           26   
     205;   195.5178;           24   
     206;   196.3931;           24   
     207;   197.2683;           31   
     208;   198.1436;           30   
     209;   199.0189;           24   
     210;   199.8942;           27   
     211;   200.7694;           35   
     212;   201.6447;           28   
     213;   202.5200;           23   
     214;   203.3953;           29   
     215;   204.2705;           30   
     216;   205.1458;           19   
     217;   206.0211;           22   
     218;   206.8964;           27   
     219;   207.7716;           25   
     220;   208.6469;           25   
     221;   209.5222;           23   
     222;   210.3975;           21   
     223;   211.2727;           36   
     224;   212.1480;           33   
     225;   213.0233;           20   
     226;   213.8986;           18   
     227;   214.7738;           32   
     228;   215.6491;           27   
     229;   216.5244;           24   
     230;   217.3997;           31   
     231;   218.2749;           16   
     232;   219.1502;           15   
     233;   220.0255;           25   
     234;   220.9008;           30   
     235;   221.7760;           22   
     236;   222.6513;           26   
     237;   223.5266;           22   
     238;   224.4019;           22   
     239;   225.2771;           23   
     240;   226.1524;           18   
     241;   227.0277;           17   
     242;   227.9030;           18   
     243;   228.7782;           25   
     244;   229.6535;           28   
     245;   230.5288;           17   
     246;   231.4041;           22   
     247;   232.2793;           25   
     248;   233.1546;           23   
     249;   234.0299;           23   
     250;   234.9052;           21   
     251;   235.7804;           16   
     252;   236.6557;           21   
     253;   237.5310;           19   
     254;   238.4063;           25   
     255;   239.2815;           30   
     256;   240.1568;           45   
     257;   241.0321;           46   
     258;   241.9074;           33   
     259;   242.7826;           32   
     260;   243.6579;           21   
     261;   244.5332;           30   
     262;   245.4085;           26   
     263;   246.2837;           15   
     264;   247.1590;           21   
     265;   248.0343;           18   
     266;   248.9096;            9   
     267;   249.7848;           18   
     268;   250.6601;           25   
     269;   251.5354;           16   
     270;   252.4107;           25   
     271;   253.2859;           12   
     272;   254.1612;           12   
     273;   255.0365;            9   
     274;   255.9118;           20   
     275;   256.7870;           13   
     276;   257.6623;           21   
     277;   258.5376;           13   
     278;   259.4129;           21   
     279;   260.2881;           10   
     280;   261.1634;           21   
     281;   262.0387;           19   
     282;   262.9140;           17   
     283;   263.7892;           14   
     284;   264.6645;           14   
     285;   265.5398;           19   
     286;   266.4151;           12   
     287;   267.2903;           27   
     288;   268.1656;           16   
     289;   269.0409;           23   
     290;   269.9162;           14   
     291;   270.7914;           14   
     292;   271.6667;           16   
     293;   272.5420;           23   
     294;   273.4173;           18   
     295;   274.2925;           15   
     296;   275.1678;           17   
     297;   276.0431;           16   
     298;   276.9184;            9   
     299;   277.7936;           16   
     300;   278.6689;           15   
     301;   279.5442;           19   
     302;   280.4195;           18   
     303;   281.2947;           11   
     304;   282.1700;           19   
     305;   283.0453;            6   
     306;   283.9206;           12   
     307;   284.7958;           15   
     308;   285.6711;           13   
     309;   286.5464;           12   
     310;   287.4217;           14   
     311;   288.2969;           23   
     312;   289.1722;           16   
     313;   290.0475;           11   
     314;   290.9228;           12   
     315;   291.7980;           12   
     316;   292.6733;           18   
     317;   293.5486;           16   
     318;   294.4239;           13   
     319;   295.2991;           17   
     320;   296.1744;           17   
     321;   297.0497;           20   
     322;   297.9250;           14   
     323;   298.8002;           12   
     324;   299.6755;           19   
     325;   300.5508;           27   
     326;   301.4261;           17   
     327;   302.3013;            6   
     328;   303.1766;           11   
     329;   304.0519;           13   
     330;   304.9272;           10   
     331;   305.8024;           13   
     332;   306.6777;           14   
     333;   307.5530;           15   
     334;   308.4283;           11   
     335;   309.3035;           10   
     336;   310.1788;           15   
     337;   311.0541;           11   
     338;   311.9294;           10   
     339;   312.8046;           16   
     340;   313.6799;           13   
     341;   314.5552;           11   
     342;   315.4305;           13   
     343;   316.3057;           10   
     344;   317.1810;           10   
     345;   318.0563;           13   
     346;   318.9316;            7   
     347;   319.8068;           12   
     348;   320.6821;           12   
     349;   321.5574;           11   
     350;   322.4327;            7   
     351;   323.3079;           14   
     352;   324.1832;            9   
     353;   325.0585;            7   
     354;   325.9338;           10   
     355;   326.8090;           16   
     356;   327.6843;            3   
     357;   328.5596;            7   
     358;   329.4349;           10   
     359;   330.3101;            6   
     360;   331.1854;            4   
     361;   332.0607;            7   
     362;   332.9360;            7   
     363;   333.8112;           12   
     364;   334.6865;           10   
     365;   335.5618;            6   
     366;   336.4371;           15   
     367;   337.3123;           16   
     368;   338.1876;           10   
     369;   339.0629;           10   
     370;   339.9382;           16   
     371;   340.8134;           13   
     372;   341.6887;            9   
     373;   342.5640;            9   
     374;   343.4393;            7   
     375;   344.3145;            6   
     376;   345.1898;           12   
     377;   346.0651;            6   
     378;   346.9404;           10   
     379;   347.8156;            5   
     380;   348.6909;            9   
     381;   349.5662;            9   
     382;   350.4415;           11   
     383;   351.3167;           15   
     384;   352.1920;           13   
     385;   353.0673;           20   
     386;   353.9426;           23   
     387;   354.8178;           17   
     388;   355.6931;           11   
     389;   356.5684;           12   
     390;   357.4437;           10   
     391;   358.3189;           12   
     392;   359.1942;           11   
     393;   360.0695;           10   
     394;   360.9448;            6   
     395;   361.8200;           12   
     396;   362.6953;            8   
     397;   363.5706;           11   
     398;   364.4459;            4   
     399;   365.3211;            8   
     400;   366.1964;            5   
     401;   367.0717;            7   
     402;   367.9470;           13   
     403;   368.8222;           11   
     404;   369.6975;            8   
     405;   370.5728;           13   
     406;   371.4481;            9   
     407;   372.3233;            5   
     408;   373.1986;            7   
     409;   374.0739;           12   
     410;   374.9492;            7   
     411;   375.8244;           10   
     412;   376.6997;            5   
     413;   377.5750;            7   
     414;   378.4503;            7   
     415;   379.3255;            5   
     416;   380.2008;            7   
     417;   381.0761;            6   
     418;   381.9514;           10   
     419;   382.8266;            9   
     420;   383.7019;            6   
     421;   384.5772;            2   
     422;   385.4525;            7   
     423;   386.3277;            7   
     424;   387.2030;            8   
     425;   388.0783;            7   
     426;   388.9536;            8   
     427;   389.8288;            8   
     428;   390.7041;            8   
     429;   391.5794;            7   
     430;   392.4547;            7   
     431;   393.3299;            9   
     432;   394.2052;            6   
     433;   395.0805;           10   
     434;   395.9558;            7   
     435;   396.8310;            5   
     436;   397.7063;            6   
     437;   398.5816;            9   
     438;   399.4569;            9   
     439;   400.3321;            8   
     440;   401.2074;           12   
     441;   402.0827;            8   
     442;   402.9580;            8   
     443;   403.8332;            8   
     444;   404.7085;            7   
     445;   405.5838;            8   
     446;   406.4591;            9   
     447;   407.3343;            7   
     448;   408.2096;            3   
     449;   409.0849;            3   
     450;   409.9602;            9   
     451;   410.8354;            8   
     452;   411.7107;            4   
     453;   412.5860;           11   
     454;   413.4613;            7   
     455;   414.3365;            7   
     456;   415.2118;            4   
     457;   416.0871;            5   
     458;   416.9624;           13   
     459;   417.8376;            5   
     460;   418.7129;            6   
     461;   419.5882;            8   
     462;   420.4635;            9   
     463;   421.3387;           12   
     464;   422.2140;           10   
     465;   423.0893;           12   
     466;   423.9646;            9   
     467;   424.8398;            3   
     468;   425.7151;           10   
     469;   426.5904;            1   
     470;   427.4657;            6   
     471;   428.3409;            4   
     472;   429.2162;            4   
     473;   430.0915;            9   
     474;   430.9668;           10   
     475;   431.8420;            4   
     476;   432.7173;            6   
     477;   433.5926;            6   
     478;   434.4679;           11   
     479;   435.3431;           10   
     480;   436.2184;            4   
     481;   437.0937;            9   
     482;   437.9690;           11   
     483;   438.8442;            4   
     484;   439.7195;            8   
     485;   440.5948;            7   
     486;   441.4701;            8   
     487;   442.3453;            4   
     488;   443.2206;            7   
     489;   444.0959;            6   
     490;   444.9712;            5   
     491;   445.8464;            6   
     492;   446.7217;            7   
     493;   447.5970;            6   
     494;   448.4723;            7   
     495;   449.3475;            5   
     496;   450.2228;            4   
     497;   451.0981;            4   
     498;   451.9734;            5   
     499;   452.8486;            2   
     500;   453.7239;           10   
     501;   454.5992;            6   
     502;   455.4745;            7   
     503;   456.3497;           10   
     504;   457.2250;            4   
     505;   458.1003;            6   
     506;   458.9756;            7   
     507;   459.8508;            6   
     508;   460.7261;            7   
     509;   461.6014;            5   
     510;   462.4767;            5   
     511;   463.3519;            2   
     512;   464.2272;            9   
     513;   465.1025;           12   
     514;   465.9778;            9   
     515;   466.8530;            5   
     516;   467.7283;            5   
     517;   468.6036;            5   
     518;   469.4789;            8   
     519;   470.3541;            2   
     520;   471.2294;            8   
     521;   472.1047;            6   
     522;   472.9800;            3   
     523;   473.8552;            7   
     524;   474.7305;            8   
     525;   475.6058;            7   
     526;   476.4811;            5   
     527;   477.3563;            7   
     528;   478.2316;            5   
     529;   479.1069;            3   
     530;   479.9822;            4   
     531;   480.8574;            4   
     532;   481.7327;            5   
     533;   482.6080;            9   
     534;   483.4833;            3   
     535;   484.3585;            5   
     536;   485.2338;            6   
     537;   486.1091;            5   
     538;   486.9844;            5   
     539;   487.8596;            8   
     540;   488.7349;            4   
     541;   489.6102;            7   
     542;   490.4855;            5   
     543;   491.3607;            7   
     544;   492.2360;            6   
     545;   493.1113;            3   
     546;   493.9866;            9   
     547;   494.8618;            7   
     548;   495.7371;            3   
     549;   496.6124;            6   
     550;   497.4877;            3   
     551;   498.3629;            4   
     552;   499.2382;            4   
     553;   500.1135;            7   
     554;   500.9888;            6   
     555;   501.8640;            7   
     556;   502.7393;            5   
     557;   503.6146;            2   
     558;   504.4899;            4   
     559;   505.3651;            6   
     560;   506.2404;           10   
     561;   507.1157;            7   
     562;   507.9910;            2   
     563;   508.8662;            7   
     564;   509.7415;            7   
     565;   510.6168;            3   
     566;   511.4921;            6   
     567;   512.3673;           13   
     568;   513.2426;           17   
     569;   514.1179;            7   
     570;   514.9932;            3   
     571;   515.8684;            9   
     572;   516.7437;            6   
     573;   517.6190;            3   
     574;   518.4943;            6   
     575;   519.3695;            3   
     576;   520.2448;            5   
     577;   521.1201;            3   
     578;   521.9954;            4   
     579;   522.8706;            5   
     580;   523.7459;            6   
     581;   524.6212;            7   
     582;   525.4965;            3   
     583;   526.3717;            4   
     584;   527.2470;            2   
     585;   528.1223;            9   
     586;   528.9976;            4   
     587;   529.8728;            6   
     588;   530.7481;            7   
     589;   531.6234;            6   
     590;   532.4987;            4   
     591;   533.3739;            3   
     592;   534.2492;            5   
     593;   535.1245;            4   
     594;   535.9998;            4   
     595;   536.8750;            4   
     596;   537.7503;            5   
     597;   538.6256;            6   
     598;   539.5009;            4   
     599;   540.3761;            4   
     600;   541.2514;            4   
     601;   542.1267;            5   
     602;   543.0020;            8   
     603;   543.8772;            0   
     604;   544.7525;            2   
     605;   545.6278;            5   
     606;   546.5031;            2   
     607;   547.3783;            1   
     608;   548.2536;            8   
     609;   549.1289;            3   
     610;   550.0042;            3   
     611;   550.8794;            7   
     612;   551.7547;            6   
     613;   552.6300;            4   
     614;   553.5053;            7   
     615;   554.3805;            2   
     616;   555.2558;            3   
     617;   556.1311;            8   
     618;   557.0064;            5   
     619;   557.8816;            4   
     620;   558.7569;            4   
     621;   559.6322;            7   
     622;   560.5075;            4   
     623;   561.3827;            4   
     624;   562.2580;            7   
     625;   563.1333;            3   
     626;   564.0086;            5   
     627;   564.8838;            2   
     628;   565.7591;            5   
     629;   566.6344;            2   
     630;   567.5097;            8   
     631;   568.3849;            5   
     632;   569.2602;            2   
     633;   570.1355;            6   
     634;   571.0108;            3   
     635;   571.8860;            5   
     636;   572.7613;            6   
     637;   573.6366;            3   
     638;   574.5119;            5   
     639;   575.3871;            7   
     640;   576.2624;            6   
     641;   577.1377;            5   
     642;   578.0130;            2   
     643;   578.8882;            4   
     644;   579.7635;            7   
     645;   580.6388;            5   
     646;   581.5141;            5   
     647;   582.3893;            2   
     648;   583.2646;            6   
     649;   584.1399;            8   
     650;   585.0152;           18   
     651;   585.8904;           11   
     652;   586.7657;            9   
     653;   587.6410;            4   
     654;   588.5163;            7   
     655;   589.3915;            4   
     656;   590.2668;            4   
     657;   591.1421;            2   
     658;   592.0174;            2   
     659;   592.8926;            4   
     660;   593.7679;            4   
     661;   594.6432;            3   
     662;   595.5185;            2   
     663;   596.3937;            2   
     664;   597.2690;            2   
     665;   598.1443;            7   
     666;   599.0196;            4   
     667;   599.8948;            3   
     668;   600.7701;            3   
     669;   601.6454;            3   
     670;   602.5207;            2   
     671;   603.3959;            0   
     672;   604.2712;            1   
     673;   605.1465;            4   
     674;   606.0218;            6   
     675;   606.8970;            3   
     676;   607.7723;            2   
     677;   608.6476;            1   
     678;   609.5229;            8   
     679;   610.3981;           21   
     680;   611.2734;           18   
     681;   612.1487;            7   
     682;   613.0240;            5   
     683;   613.8992;            4   
     684;   614.7745;            5   
     685;   615.6498;            4   
     686;   616.5251;            7   
     687;   617.4003;            4   
     688;   618.2756;            1   
     689;   619.1509;            3   
     690;   620.0262;            6   
     691;   620.9014;            4   
     692;   621.7767;            5   
     693;   622.6520;            5   
     694;   623.5273;            3   
     695;   624.4025;            2   
     696;   625.2778;            2   
     697;   626.1531;            3   
     698;   627.0284;            4   
     699;   627.9036;            3   
     700;   628.7789;            3   
     701;   629.6542;            4   
     702;   630.5295;            4   
     703;   631.4047;            4   
     704;   632.2800;            4   
     705;   633.1553;            0   
     706;   634.0306;            3   
     707;   634.9058;            6   
     708;   635.7811;            2   
     709;   636.6564;            3   
     710;   637.5317;            5   
     711;   638.4069;            6   
     712;   639.2822;            4   
     713;   640.1575;            6   
     714;   641.0328;            3   
     715;   641.9080;            4   
     716;   642.7833;            2   
     717;   643.6586;            2   
     718;   644.5339;            6   
     719;   645.4091;            3   
     720;   646.2844;            4   
     721;   647.1597;            5   
     722;   648.0350;            3   
     723;   648.9102;            5   
     724;   649.7855;            3   
     725;   650.6608;            4   
     726;   651.5361;            3   
     727;   652.4113;            2   
     728;   653.2866;            6   
     729;   654.1619;            3   
     730;   655.0372;            5   
     731;   655.9124;            3   
     732;   656.7877;            1   
     733;   657.6630;            5   
     734;   658.5383;            2   
     735;   659.4135;            2   
     736;   660.2888;            5   
     737;   661.1641;            1   
     738;   662.0394;            4   
     739;   662.9146;            4   
     740;   663.7899;            4   
     741;   664.6652;            8   
     742;   665.5405;            6   
     743;   666.4157;            4   
     744;   667.2910;            2   
     745;   668.1663;            2   
     746;   669.0416;            7   
     747;   669.9168;            7   
     748;   670.7921;            3   
     749;   671.6674;            6   
     750;   672.5427;            2   
     751;   673.4179;            2   
     752;   674.2932;            0   
     753;   675.1685;            2   
     754;   676.0438;            2   
     755;   676.9190;            3   
     756;   677.7943;            3   
     757;   678.6696;            4   
     758;   679.5449;            4   
     759;   680.4201;            4   
     760;   681.2954;            2   
     761;   682.1707;            1   
     762;   683.0460;            3   
     763;   683.9212;            3   
     764;   684.7965;            1   
     765;   685.6718;            3   
     766;   686.5471;            4   
     767;   687.4223;            3   
     768;   688.2976;            4   
     769;   689.1729;            5   
     770;   690.0482;            4   
     771;   690.9234;            6   
     772;   691.7987;            4   
     773;   692.6740;            5   
     774;   693.5493;            3   
     775;   694.4245;            2   
     776;   695.2998;            3   
     777;   696.1751;            4   
     778;   697.0504;            4   
     779;   697.9256;            1   
     780;   698.8009;            2   
     781;   699.6762;            5   
     782;   700.5515;            5   
     783;   701.4267;            1   
     784;   702.3020;            3   
     785;   703.1773;            6   
     786;   704.0526;            4   
     787;   704.9278;            1   
     788;   705.8031;            3   
     789;   706.6784;            2   
     790;   707.5537;            1   
     791;   708.4289;            3   
     792;   709.3042;            3   
     793;   710.1795;            4   
     794;   711.0548;            2   
     795;   711.9300;            4   
     796;   712.8053;            2   
     797;   713.6806;            5   
     798;   714.5559;            0   
     799;   715.4311;            3   
     800;   716.3064;            1   
     801;   717.1817;            2   
     802;   718.0570;            3   
     803;   718.9322;            4   
     804;   719.8075;            4   
     805;   720.6828;            2   
     806;   721.5581;            2   
     807;   722.4333;            3   
     808;   723.3086;            4   
     809;   724.1839;            4   
     810;   725.0592;            3   
     811;   725.9344;            2   
     812;   726.8097;            2   
     813;   727.6850;            7   
     814;   728.5603;            2   
     815;   729.4355;            6   
     816;   730.3108;            6   
     817;   731.1861;            1   
     818;   732.0614;            0   
     819;   732.9366;            4   
     820;   733.8119;            2   
     821;   734.6872;            3   
     822;   735.5625;            1   
     823;   736.4377;            3   
     824;   737.3130;            4   
     825;   738.1883;            8   
     826;   739.0636;            2   
     827;   739.9388;            1   
     828;   740.8141;            0   
     829;   741.6894;            3   
     830;   742.5647;            6   
     831;   743.4399;            5   
     832;   744.3152;            3   
     833;   745.1905;            2   
     834;   746.0658;            3   
     835;   746.9410;            1   
     836;   747.8163;            0   
     837;   748.6916;            4   
     838;   749.5669;            0   
     839;   750.4421;            1   
     840;   751.3174;            2   
     841;   752.1927;            2   
     842;   753.0680;            3   
     843;   753.9432;            2   
     844;   754.8185;            5   
     845;   755.6938;            5   
     846;   756.5691;            3   
     847;   757.4443;            1   
     848;   758.3196;            2   
     849;   759.1949;            3   
     850;   760.0702;            0   
     851;   760.9454;            1   
     852;   761.8207;            1   
     853;   762.6960;            4   
     854;   763.5713;            1   
     855;   764.4465;            2   
     856;   765.3218;            4   
     857;   766.1971;            2   
     858;   767.0724;            4   
     859;   767.9476;            2   
     860;   768.8229;            5   
     861;   769.6982;            5   
     862;   770.5735;            3   
     863;   771.4487;            2   
     864;   772.3240;            0   
     865;   773.1993;            3   
     866;   774.0746;            5   
     867;   774.9498;            7   
     868;   775.8251;            3   
     869;   776.7004;            4   
     870;   777.5757;            2   
     871;   778.4509;            0   
     872;   779.3262;            1   
     873;   780.2015;            5   
     874;   781.0768;            4   
     875;   781.9520;            0   
     876;   782.8273;            2   
     877;   783.7026;            1   
     878;   784.5779;            0   
     879;   785.4531;            1   
     880;   786.3284;            3   
     881;   787.2037;            2   
     882;   788.0790;            1   
     883;   788.9542;            1   
     884;   789.8295;            0   
     885;   790.7048;            2   
     886;   791.5801;            1   
     887;   792.4553;            2   
     888;   793.3306;            1   
     889;   794.2059;            2   
     890;   795.0812;            6   
     891;   795.9564;            4   
     892;   796.8317;            3   
     893;   797.7070;            4   
     894;   798.5823;            1   
     895;   799.4575;            0   
     896;   800.3328;            4   
     897;   801.2081;            3   
     898;   802.0834;            3   
     899;   802.9586;            5   
     900;   803.8339;            2   
     901;   804.7092;            2   
     902;   805.5845;            1   
     903;   806.4597;            6   
     904;   807.3350;            5   
     905;   808.2103;            2   
     906;   809.0856;            3   
     907;   809.9608;            1   
     908;   810.8361;            2   
     909;   811.7114;            0   
     910;   812.5867;            3   
     911;   813.4619;            4   
     912;   814.3372;            0   
     913;   815.2125;            2   
     914;   816.0878;            1   
     915;   816.9631;            2   
     916;   817.8383;            2   
     917;   818.7136;            3   
     918;   819.5889;            3   
     919;   820.4642;            1   
     920;   821.3394;            2   
     921;   822.2147;            1   
     922;   823.0900;            1   
     923;   823.9653;            2   
     924;   824.8405;            2   
     925;   825.7158;            3   
     926;   826.5911;            2   
     927;   827.4664;            0   
     928;   828.3416;            2   
     929;   829.2169;            3   
     930;   830.0922;            2   
     931;   830.9675;            4   
     932;   831.8427;            2   
     933;   832.7180;            4   
     934;   833.5933;            0   
     935;   834.4686;            2   
     936;   835.3438;            2   
     937;   836.2191;            4   
     938;   837.0944;            0   
     939;   837.9697;            0   
     940;   838.8449;            3   
     941;   839.7202;            3   
     942;   840.5955;            4   
     943;   841.4708;            1   
     944;   842.3460;            2   
     945;   843.2213;            1   
     946;   844.0966;            2   
     947;   844.9719;            3   
     948;   845.8471;            1   
     949;   846.7224;            4   
     950;   847.5977;            3   
     951;   848.4730;            0   
     952;   849.3482;            3   
     953;   850.2235;            5   
     954;   851.0988;            2   
     955;   851.9741;            2   
     956;   852.8493;            2   
     957;   853.7246;            0   
     958;   854.5999;            5   
     959;   855.4752;            1   
     960;   856.3504;            3   
     961;   857.2257;            1   
     962;   858.1010;            2   
     963;   858.9763;            2   
     964;   859.8515;            4   
     965;   860.7268;            3   
     966;   861.6021;            4   
     967;   862.4774;            6   
     968;   863.3526;            2   
     969;   864.2279;            3   
     970;   865.1032;            2   
     971;   865.9785;            2   
     972;   866.8537;            3   
     973;   867.7290;            2   
     974;   868.6043;            3   
     975;   869.4796;            5   
     976;   870.3548;            0   
     977;   871.2301;            4   
     978;   872.1054;            3   
     979;   872.9807;            2   
     980;   873.8559;            1   
     981;   874.7312;            3   
     982;   875.6065;            1   
     983;   876.4818;            6   
     984;   877.3570;            4   
     985;   878.2323;            3   
     986;   879.1076;            2   
     987;   879.9829;            6   
     988;   880.8581;            3   
     989;   881.7334;            2   
     990;   882.6087;            4   
     991;   883.4840;            2   
     992;   884.3592;            2   
     993;   885.2345;            4   
     994;   886.1098;            5   
     995;   886.9851;            2   
     996;   887.8603;            2   
     997;   888.7356;            4   
     998;   889.6109;            2   
     999;   890.4862;            4   
    1000;   891.3614;            1   
    1001;   892.2367;            2   
    1002;   893.1120;            2   
    1003;   893.9873;            4   
    1004;   894.8625;            3   
    1005;   895.7378;            0   
    1006;   896.6131;            0   
    1007;   897.4884;            4   
    1008;   898.3636;            0   
    1009;   899.2389;            2   
    1010;   900.1142;            0   
    1011;   900.9895;            1   
    1012;   901.8647;            1   
    1013;   902.7400;            3   
    1014;   903.6153;            2   
    1015;   904.4906;            2   
    1016;   905.3658;            2   
    1017;   906.2411;            3   
    1018;   907.1164;            1   
    1019;   907.9917;            0   
    1020;   908.8669;            3   
    1021;   909.7422;            2   
    1022;   910.6175;            7   
    1023;   911.4928;            8   
    1024;   912.3680;            5   
    1025;   913.2433;            8   
    1026;   914.1186;            0   
    1027;   914.9939;            3   
    1028;   915.8691;            1   
    1029;   916.7444;            5   
    1030;   917.6197;            1   
    1031;   918.4950;            5   
    1032;   919.3702;            2   
    1033;   920.2455;            5   
    1034;   921.1208;            1   
    1035;   921.9961;            3   
    1036;   922.8713;            0   
    1037;   923.7466;            3   
    1038;   924.6219;            1   
    1039;   925.4972;            1   
    1040;   926.3724;            1   
    1041;   927.2477;            2   
    1042;   928.1230;            4   
    1043;   928.9983;            1   
    1044;   929.8735;            1   
    1045;   930.7488;            1   
    1046;   931.6241;            2   
    1047;   932.4994;            2   
    1048;   933.3746;            2   
    1049;   934.2499;            1   
    1050;   935.1252;            4   
    1051;   936.0005;            0   
    1052;   936.8757;            3   
    1053;   937.7510;            1   
    1054;   938.6263;            2   
    1055;   939.5016;            2   
    1056;   940.3768;            1   
    1057;   941.2521;            0   
    1058;   942.1274;            3   
    1059;   943.0027;            2   
    1060;   943.8779;            4   
    1061;   944.7532;            1   
    1062;   945.6285;            2   
    1063;   946.5038;            1   
    1064;   947.3790;            1   
    1065;   948.2543;            5   
    1066;   949.1296;            2   
    1067;   950.0049;            3   
    1068;   950.8801;            4   
    1069;   951.7554;            4   
    1070;   952.6307;            4   
    1071;   953.5060;            2   
    1072;   954.3812;            5   
    1073;   955.2565;            1   
    1074;   956.1318;            2   
    1075;   957.0071;            0   
    1076;   957.8823;            1   
    1077;   958.7576;            2   
    1078;   959.6329;            3   
    1079;   960.5082;            3   
    1080;   961.3834;            2   
    1081;   962.2587;            2   
    1082;   963.1340;            3   
    1083;   964.0093;            1   
    1084;   964.8845;            0   
    1085;   965.7598;            5   
    1086;   966.6351;            2   
    1087;   967.5104;            7   
    1088;   968.3856;            3   
    1089;   969.2609;            5   
    1090;   970.1362;            9   
    1091;   971.0115;            3   
    1092;   971.8867;            2   
    1093;   972.7620;            1   
    1094;   973.6373;            1   
    1095;   974.5126;            3   
    1096;   975.3878;            1   
    1097;   976.2631;            2   
    1098;   977.1384;            3   
    1099;   978.0137;            1   
    1100;   978.8889;            1   
    1101;   979.7642;            2   
    1102;   980.6395;            2   
    1103;   981.5148;            2   
    1104;   982.3900;            2   
    1105;   983.2653;            4   
    1106;   984.1406;            1   
    1107;   985.0159;            2   
    1108;   985.8911;            1   
    1109;   986.7664;            1   
    1110;   987.6417;            1   
    1111;   988.5170;            1   
    1112;   989.3922;            1   
    1113;   990.2675;            1   
    1114;   991.1428;            1   
    1115;   992.0181;            2   
    1116;   992.8933;            1   
    1117;   993.7686;            3   
    1118;   994.6439;            0   
    1119;   995.5192;            2   
    1120;   996.3944;            2   
    1121;   997.2697;            2   
    1122;   998.1450;            0   
    1123;   999.0203;            1   
    1124;   999.8955;            2   
    1125;  1000.7708;            0   
    1126;  1001.6461;            2   
    1127;  1002.5214;            1   
    1128;  1003.3966;            0   
    1129;  1004.2719;            0   
    1130;  1005.1472;            4   
    1131;  1006.0225;            0   
    1132;  1006.8977;            2   
    1133;  1007.7730;            2   
    1134;  1008.6483;            1   
    1135;  1009.5236;            1   
    1136;  1010.3988;            3   
    1137;  1011.2741;            5   
    1138;  1012.1494;            3   
    1139;  1013.0247;            2   
    1140;  1013.8999;            2   
    1141;  1014.7752;            4   
    1142;  1015.6505;            1   
    1143;  1016.5258;            3   
    1144;  1017.4010;            6   
    1145;  1018.2763;            3   
    1146;  1019.1516;            1   
    1147;  1020.0269;            3   
    1148;  1020.9021;            2   
    1149;  1021.7774;            2   
    1150;  1022.6527;            1   
    1151;  1023.5280;            1   
    1152;  1024.4032;            2   
    1153;  1025.2785;            4   
    1154;  1026.1538;            2   
    1155;  1027.0291;            4   
    1156;  1027.9043;            0   
    1157;  1028.7796;            1   
    1158;  1029.6549;            4   
    1159;  1030.5302;            3   
    1160;  1031.4054;            6   
    1161;  1032.2807;            3   
    1162;  1033.1560;            1   
    1163;  1034.0313;            3   
    1164;  1034.9065;            3   
    1165;  1035.7818;            3   
    1166;  1036.6571;            3   
    1167;  1037.5324;            1   
    1168;  1038.4076;            2   
    1169;  1039.2829;            1   
    1170;  1040.1582;            0   
    1171;  1041.0335;            3   
    1172;  1041.9087;            2   
    1173;  1042.7840;            2   
    1174;  1043.6593;            0   
    1175;  1044.5346;            0   
    1176;  1045.4098;            1   
    1177;  1046.2851;            1   
    1178;  1047.1604;            1   
    1179;  1048.0357;            3   
    1180;  1048.9109;            1   
    1181;  1049.7862;            0   
    1182;  1050.6615;            2   
    1183;  1051.5368;            2   
    1184;  1052.4120;            6   
    1185;  1053.2873;            0   
    1186;  1054.1626;            0   
    1187;  1055.0379;            1   
    1188;  1055.9131;            2   
    1189;  1056.7884;            1   
    1190;  1057.6637;            0   
    1191;  1058.5390;            0   
    1192;  1059.4142;            2   
    1193;  1060.2895;            0   
    1194;  1061.1648;            0   
    1195;  1062.0401;            0   
    1196;  1062.9153;            3   
    1197;  1063.7906;            1   
    1198;  1064.6659;            4   
    1199;  1065.5412;            2   
    1200;  1066.4164;            2   
    1201;  1067.2917;            1   
    1202;  1068.1670;            2   
    1203;  1069.0423;            2   
    1204;  1069.9175;            5   
    1205;  1070.7928;            1   
    1206;  1071.6681;            4   
    1207;  1072.5434;            1   
    1208;  1073.4186;            1   
    1209;  1074.2939;            3   
    1210;  1075.1692;            2   
    1211;  1076.0445;            1   
    1212;  1076.9197;            2   
    1213;  1077.7950;            3   
    1214;  1078.6703;            5   
    1215;  1079.5456;            1   
    1216;  1080.4208;            1   
    1217;  1081.2961;            5   
    1218;  1082.1714;            3   
    1219;  1083.0467;            3   
    1220;  1083.9219;            3   
    1221;  1084.7972;            2   
    1222;  1085.6725;            2   
    1223;  1086.5478;            1   
    1224;  1087.4230;            0   
    1225;  1088.2983;            2   
    1226;  1089.1736;            1   
    1227;  1090.0489;            3   
    1228;  1090.9241;            3   
    1229;  1091.7994;            1   
    1230;  1092.6747;            3   
    1231;  1093.5500;            1   
    1232;  1094.4252;            1   
    1233;  1095.3005;            1   
    1234;  1096.1758;            0   
    1235;  1097.0511;            1   
    1236;  1097.9263;            2   
    1237;  1098.8016;            4   
    1238;  1099.6769;            0   
    1239;  1100.5522;            1   
    1240;  1101.4274;            1   
    1241;  1102.3027;            1   
    1242;  1103.1780;            3   
    1243;  1104.0533;            2   
    1244;  1104.9285;            3   
    1245;  1105.8038;            0   
    1246;  1106.6791;            1   
    1247;  1107.5544;            1   
    1248;  1108.4296;            3   
    1249;  1109.3049;            2   
    1250;  1110.1802;            0   
    1251;  1111.0555;            1   
    1252;  1111.9307;            1   
    1253;  1112.8060;            2   
    1254;  1113.6813;            7   
    1255;  1114.5566;            1   
    1256;  1115.4318;            1   
    1257;  1116.3071;            0   
    1258;  1117.1824;            2   
    1259;  1118.0577;            1   
    1260;  1118.9329;            1   
    1261;  1119.8082;            5   
    1262;  1120.6835;            8   
    1263;  1121.5588;            2   
    1264;  1122.4340;            1   
    1265;  1123.3093;            3   
    1266;  1124.1846;            0   
    1267;  1125.0599;            1   
    1268;  1125.9351;            3   
    1269;  1126.8104;            3   
    1270;  1127.6857;            1   
    1271;  1128.5610;            1   
    1272;  1129.4362;            0   
    1273;  1130.3115;            3   
    1274;  1131.1868;            1   
    1275;  1132.0621;            0   
    1276;  1132.9373;            3   
    1277;  1133.8126;            3   
    1278;  1134.6879;            3   
    1279;  1135.5632;            2   
    1280;  1136.4384;            1   
    1281;  1137.3137;            1   
    1282;  1138.1890;            2   
    1283;  1139.0643;            2   
    1284;  1139.9395;            1   
    1285;  1140.8148;            3   
    1286;  1141.6901;            3   
    1287;  1142.5654;            0   
    1288;  1143.4406;            3   
    1289;  1144.3159;            0   
    1290;  1145.1912;            2   
    1291;  1146.0665;            3   
    1292;  1146.9417;            0   
    1293;  1147.8170;            2   
    1294;  1148.6923;            3   
    1295;  1149.5676;            1   
    1296;  1150.4428;            2   
    1297;  1151.3181;            0   
    1298;  1152.1934;            2   
    1299;  1153.0687;            1   
    1300;  1153.9439;            2   
    1301;  1154.8192;            5   
    1302;  1155.6945;            4   
    1303;  1156.5698;            6   
    1304;  1157.4450;            1   
    1305;  1158.3203;            4   
    1306;  1159.1956;            0   
    1307;  1160.0709;            1   
    1308;  1160.9461;            1   
    1309;  1161.8214;            2   
    1310;  1162.6967;            4   
    1311;  1163.5720;            3   
    1312;  1164.4472;            4   
    1313;  1165.3225;            0   
    1314;  1166.1978;            1   
    1315;  1167.0731;            1   
    1316;  1167.9483;            2   
    1317;  1168.8236;            6   
    1318;  1169.6989;            0   
    1319;  1170.5742;            1   
    1320;  1171.4494;            3   
    1321;  1172.3247;            4   
    1322;  1173.2000;            2   
    1323;  1174.0753;            4   
    1324;  1174.9505;            3   
    1325;  1175.8258;            3   
    1326;  1176.7011;            3   
    1327;  1177.5764;            3   
    1328;  1178.4516;            4   
    1329;  1179.3269;            2   
    1330;  1180.2022;            1   
    1331;  1181.0775;            2   
    1332;  1181.9527;            2   
    1333;  1182.8280;            1   
    1334;  1183.7033;            2   
    1335;  1184.5786;            0   
    1336;  1185.4538;            2   
    1337;  1186.3291;            1   
    1338;  1187.2044;            2   
    1339;  1188.0797;            0   
    1340;  1188.9549;            1   
    1341;  1189.8302;            3   
    1342;  1190.7055;            2   
    1343;  1191.5808;            0   
    1344;  1192.4560;            0   
    1345;  1193.3313;            3   
    1346;  1194.2066;            1   
    1347;  1195.0819;            5   
    1348;  1195.9571;            3   
    1349;  1196.8324;            2   
    1350;  1197.7077;            2   
    1351;  1198.5830;            3   
    1352;  1199.4582;            2   
    1353;  1200.3335;            0   
    1354;  1201.2088;            3   
    1355;  1202.0841;            0   
    1356;  1202.9593;            1   
    1357;  1203.8346;            2   
    1358;  1204.7099;            2   
    1359;  1205.5852;            2   
    1360;  1206.4604;            3   
    1361;  1207.3357;            2   
    1362;  1208.2110;            0   
    1363;  1209.0863;            1   
    1364;  1209.9615;            1   
    1365;  1210.8368;            1   
    1366;  1211.7121;            2   
    1367;  1212.5874;            6   
    1368;  1213.4626;            0   
    1369;  1214.3379;            3   
    1370;  1215.2132;            1   
    1371;  1216.0885;            5   
    1372;  1216.9637;            3   
    1373;  1217.8390;            5   
    1374;  1218.7143;            3   
    1375;  1219.5896;            2   
    1376;  1220.4648;            1   
    1377;  1221.3401;            2   
    1378;  1222.2154;            1   
    1379;  1223.0907;            2   
    1380;  1223.9659;            2   
    1381;  1224.8412;            3   
    1382;  1225.7165;            4   
    1383;  1226.5918;            4   
    1384;  1227.4670;            4   
    1385;  1228.3423;            4   
    1386;  1229.2176;            3   
    1387;  1230.0929;            0   
    1388;  1230.9681;            1   
    1389;  1231.8434;            2   
    1390;  1232.7187;            1   
    1391;  1233.5940;            1   
    1392;  1234.4692;            1   
    1393;  1235.3445;            2   
    1394;  1236.2198;            1   
    1395;  1237.0951;            3   
    1396;  1237.9703;            0   
    1397;  1238.8456;            3   
    1398;  1239.7209;            3   
    1399;  1240.5962;            0   
    1400;  1241.4714;            2   
    1401;  1242.3467;            3   
    1402;  1243.2220;            1   
    1403;  1244.0973;            0   
    1404;  1244.9725;            1   
    1405;  1245.8478;            2   
    1406;  1246.7231;            3   
    1407;  1247.5984;            2   
    1408;  1248.4736;            1   
    1409;  1249.3489;            1   
    1410;  1250.2242;            1   
    1411;  1251.0995;            0   
    1412;  1251.9747;            0   
    1413;  1252.8500;            3   
    1414;  1253.7253;            1   
    1415;  1254.6006;            1   
    1416;  1255.4758;            1   
    1417;  1256.3511;            1   
    1418;  1257.2264;            1   
    1419;  1258.1017;            1   
    1420;  1258.9769;            0   
    1421;  1259.8522;            2   
    1422;  1260.7275;            0   
    1423;  1261.6028;            0   
    1424;  1262.4780;            2   
    1425;  1263.3533;            1   
    1426;  1264.2286;            0   
    1427;  1265.1039;            1   
    1428;  1265.9791;            0   
    1429;  1266.8544;            2   
    1430;  1267.7297;            3   
    1431;  1268.6050;            1   
    1432;  1269.4802;            2   
    1433;  1270.3555;            1   
    1434;  1271.2308;            2   
    1435;  1272.1061;            5   
    1436;  1272.9813;            3   
    1437;  1273.8566;            3   
    1438;  1274.7319;            1   
    1439;  1275.6072;            0   
    1440;  1276.4824;            4   
    1441;  1277.3577;            0   
    1442;  1278.2330;            3   
    1443;  1279.1083;            0   
    1444;  1279.9835;            0   
    1445;  1280.8588;            1   
    1446;  1281.7341;            1   
    1447;  1282.6094;            2   
    1448;  1283.4846;            0   
    1449;  1284.3599;            4   
    1450;  1285.2352;            2   
    1451;  1286.1105;            2   
    1452;  1286.9857;            2   
    1453;  1287.8610;            1   
    1454;  1288.7363;            1   
    1455;  1289.6116;            0   
    1456;  1290.4868;            0   
    1457;  1291.3621;            1   
    1458;  1292.2374;            4   
    1459;  1293.1127;            0   
    1460;  1293.9879;            0   
    1461;  1294.8632;            2   
    1462;  1295.7385;            0   
    1463;  1296.6138;            0   
    1464;  1297.4890;            0   
    1465;  1298.3643;            0   
    1466;  1299.2396;            1   
    1467;  1300.1149;            0   
    1468;  1300.9901;            2   
    1469;  1301.8654;            1   
    1470;  1302.7407;            2   
    1471;  1303.6160;            3   
    1472;  1304.4912;            0   
    1473;  1305.3665;            0   
    1474;  1306.2418;            4   
    1475;  1307.1171;            0   
    1476;  1307.9923;            1   
    1477;  1308.8676;            0   
    1478;  1309.7429;            3   
    1479;  1310.6182;            2   
    1480;  1311.4934;            1   
    1481;  1312.3687;            1   
    1482;  1313.2440;            2   
    1483;  1314.1193;            0   
    1484;  1314.9945;            1   
    1485;  1315.8698;            0   
    1486;  1316.7451;            2   
    1487;  1317.6204;            0   
    1488;  1318.4956;            2   
    1489;  1319.3709;            1   
    1490;  1320.2462;            0   
    1491;  1321.1215;            2   
    1492;  1321.9967;            0   
    1493;  1322.8720;            1   
    1494;  1323.7473;            1   
    1495;  1324.6226;            1   
    1496;  1325.4978;            3   
    1497;  1326.3731;            1   
    1498;  1327.2484;            1   
    1499;  1328.1237;            2   
    1500;  1328.9989;            1   
    1501;  1329.8742;            1   
    1502;  1330.7495;            1   
    1503;  1331.6248;            0   
    1504;  1332.5000;            1   
    1505;  1333.3753;            3   
    1506;  1334.2506;            2   
    1507;  1335.1259;            0   
    1508;  1336.0011;            1   
    1509;  1336.8764;            1   
    1510;  1337.7517;            1   
    1511;  1338.6270;            2   
    1512;  1339.5022;            1   
    1513;  1340.3775;            0   
    1514;  1341.2528;            2   
    1515;  1342.1281;            1   
    1516;  1343.0033;            0   
    1517;  1343.8786;            0   
    1518;  1344.7539;            0   
    1519;  1345.6292;            0   
    1520;  1346.5044;            1   
    1521;  1347.3797;            1   
    1522;  1348.2550;            1   
    1523;  1349.1303;            1   
    1524;  1350.0055;            1   
    1525;  1350.8808;            1   
    1526;  1351.7561;            0   
    1527;  1352.6314;            2   
    1528;  1353.5066;            0   
    1529;  1354.3819;            0   
    1530;  1355.2572;            0   
    1531;  1356.1325;            0   
    1532;  1357.0077;            4   
    1533;  1357.8830;            1   
    1534;  1358.7583;            0   
    1535;  1359.6336;            1   
    1536;  1360.5088;            2   
    1537;  1361.3841;            2   
    1538;  1362.2594;            1   
    1539;  1363.1347;            1   
    1540;  1364.0099;            0   
    1541;  1364.8852;            0   
    1542;  1365.7605;            1   
    1543;  1366.6358;            0   
    1544;  1367.5110;            1   
    1545;  1368.3863;            2   
    1546;  1369.2616;            1   
    1547;  1370.1369;            2   
    1548;  1371.0121;            1   
    1549;  1371.8874;            0   
    1550;  1372.7627;            1   
    1551;  1373.6380;            0   
    1552;  1374.5132;            1   
    1553;  1375.3885;            0   
    1554;  1376.2638;            1   
    1555;  1377.1391;            0   
    1556;  1378.0143;            1   
    1557;  1378.8896;            1   
    1558;  1379.7649;            0   
    1559;  1380.6402;            0   
    1560;  1381.5154;            0   
    1561;  1382.3907;            0   
    1562;  1383.2660;            0   
    1563;  1384.1413;            1   
    1564;  1385.0165;            2   
    1565;  1385.8918;            2   
    1566;  1386.7671;            2   
    1567;  1387.6424;            0   
    1568;  1388.5176;            1   
    1569;  1389.3929;            0   
    1570;  1390.2682;            1   
    1571;  1391.1435;            1   
    1572;  1392.0187;            0   
    1573;  1392.8940;            2   
    1574;  1393.7693;            0   
    1575;  1394.6446;            0   
    1576;  1395.5198;            0   
    1577;  1396.3951;            1   
    1578;  1397.2704;            0   
    1579;  1398.1457;            0   
    1580;  1399.0209;            1   
    1581;  1399.8962;            0   
    1582;  1400.7715;            0   
    1583;  1401.6468;            3   
    1584;  1402.5220;            0   
    1585;  1403.3973;            0   
    1586;  1404.2726;            0   
    1587;  1405.1479;            0   
    1588;  1406.0231;            0   
    1589;  1406.8984;            2   
    1590;  1407.7737;            1   
    1591;  1408.6490;            2   
    1592;  1409.5242;            1   
    1593;  1410.3995;            0   
    1594;  1411.2748;            0   
    1595;  1412.1501;            1   
    1596;  1413.0253;            0   
    1597;  1413.9006;            2   
    1598;  1414.7759;            2   
    1599;  1415.6512;            1   
    1600;  1416.5264;            1   
    1601;  1417.4017;            1   
    1602;  1418.2770;            1   
    1603;  1419.1523;            1   
    1604;  1420.0275;            0   
    1605;  1420.9028;            1   
    1606;  1421.7781;            1   
    1607;  1422.6534;            0   
    1608;  1423.5286;            0   
    1609;  1424.4039;            1   
    1610;  1425.2792;            1   
    1611;  1426.1545;            1   
    1612;  1427.0297;            0   
    1613;  1427.9050;            1   
    1614;  1428.7803;            1   
    1615;  1429.6556;            1   
    1616;  1430.5308;            0   
    1617;  1431.4061;            0   
    1618;  1432.2814;            0   
    1619;  1433.1567;            0   
    1620;  1434.0319;            0   
    1621;  1434.9072;            1   
    1622;  1435.7825;            2   
    1623;  1436.6578;            0   
    1624;  1437.5330;            0   
    1625;  1438.4083;            0   
    1626;  1439.2836;            1   
    1627;  1440.1589;            2   
    1628;  1441.0341;            0   
    1629;  1441.9094;            2   
    1630;  1442.7847;            1   
    1631;  1443.6600;            0   
    1632;  1444.5352;            0   
    1633;  1445.4105;            0   
    1634;  1446.2858;            2   
    1635;  1447.1611;            1   
    1636;  1448.0363;            0   
    1637;  1448.9116;            0   
    1638;  1449.7869;            1   
    1639;  1450.6622;            1   
    1640;  1451.5374;            0   
    1641;  1452.4127;            0   
    1642;  1453.2880;            0   
    1643;  1454.1633;            1   
    1644;  1455.0385;            0   
    1645;  1455.9138;            0   
    1646;  1456.7891;            1   
    1647;  1457.6644;            2   
    1648;  1458.5396;            7   
    1649;  1459.4149;           28   
    1650;  1460.2902;           53   
    1651;  1461.1655;           53   
    1652;  1462.0407;           28   
    1653;  1462.9160;            8   
    1654;  1463.7913;            2   
    1655;  1464.6666;            0   
    1656;  1465.5418;            3   
    1657;  1466.4171;            0   
    1658;  1467.2924;            0   
    1659;  1468.1677;            1   
    1660;  1469.0429;            0   
    1661;  1469.9182;            0   
    1662;  1470.7935;            0   
    1663;  1471.6688;            1   
    1664;  1472.5440;            1   
    1665;  1473.4193;            1   
    1666;  1474.2946;            1   
    1667;  1475.1699;            0   
    1668;  1476.0451;            0   
    1669;  1476.9204;            1   
    1670;  1477.7957;            0   
    1671;  1478.6710;            0   
    1672;  1479.5462;            0   
    1673;  1480.4215;            0   
    1674;  1481.2968;            1   
    1675;  1482.1721;            0   
    1676;  1483.0473;            0   
    1677;  1483.9226;            0   
    1678;  1484.7979;            0   
    1679;  1485.6732;            0   
    1680;  1486.5484;            0   
    1681;  1487.4237;            0   
    1682;  1488.2990;            0   
    1683;  1489.1743;            1   
    1684;  1490.0495;            0   
    1685;  1490.9248;            0   
    1686;  1491.8001;            1   
    1687;  1492.6754;            0   
    1688;  1493.5506;            1   
    1689;  1494.4259;            1   
    1690;  1495.3012;            0   
    1691;  1496.1765;            0   
    1692;  1497.0517;            0   
    1693;  1497.9270;            1   
    1694;  1498.8023;            1   
    1695;  1499.6776;            1   
    1696;  1500.5528;            1   
    1697;  1501.4281;            1   
    1698;  1502.3034;            1   
    1699;  1503.1787;            0   
    1700;  1504.0539;            0   
    1701;  1504.9292;            0   
    1702;  1505.8045;            1   
    1703;  1506.6798;            0   
    1704;  1507.5550;            1   
    1705;  1508.4303;            1   
    1706;  1509.3056;            0   
    1707;  1510.1809;            0   
    1708;  1511.0561;            0   
    1709;  1511.9314;            1   
    1710;  1512.8067;            0   
    1711;  1513.6820;            0   
    1712;  1514.5572;            0   
    1713;  1515.4325;            0   
    1714;  1516.3078;            0   
    1715;  1517.1831;            0   
    1716;  1518.0583;            0   
    1717;  1518.9336;            0   
    1718;  1519.8089;            0   
    1719;  1520.6842;            0   
    1720;  1521.5594;            0   
    1721;  1522.4347;            0   
    1722;  1523.3100;            1   
    1723;  1524.1853;            1   
    1724;  1525.0605;            0   
    1725;  1525.9358;            0   
    1726;  1526.8111;            0   
    1727;  1527.6864;            0   
    1728;  1528.5616;            0   
    1729;  1529.4369;            0   
    1730;  1530.3122;            1   
    1731;  1531.1875;            1   
    1732;  1532.0627;            0   
    1733;  1532.9380;            1   
    1734;  1533.8133;            0   
    1735;  1534.6886;            1   
    1736;  1535.5638;            0   
    1737;  1536.4391;            0   
    1738;  1537.3144;            0   
    1739;  1538.1897;            0   
    1740;  1539.0649;            0   
    1741;  1539.9402;            0   
    1742;  1540.8155;            1   
    1743;  1541.6908;            0   
    1744;  1542.5660;            1   
    1745;  1543.4413;            0   
    1746;  1544.3166;            0   
    1747;  1545.1919;            0   
    1748;  1546.0671;            0   
    1749;  1546.9424;            0   
    1750;  1547.8177;            0   
    1751;  1548.6930;            0   
    1752;  1549.5682;            1   
    1753;  1550.4435;            0   
    1754;  1551.3188;            2   
    1755;  1552.1941;            1   
    1756;  1553.0693;            0   
    1757;  1553.9446;            0   
    1758;  1554.8199;            0   
    1759;  1555.6952;            0   
    1760;  1556.5704;            0   
    1761;  1557.4457;            0   
    1762;  1558.3210;            1   
    1763;  1559.1963;            0   
    1764;  1560.0715;            0   
    1765;  1560.9468;            1   
    1766;  1561.8221;            1   
    1767;  1562.6974;            0   
    1768;  1563.5726;            0   
    1769;  1564.4479;            0   
    1770;  1565.3232;            1   
    1771;  1566.1985;            0   
    1772;  1567.0737;            1   
    1773;  1567.9490;            0   
    1774;  1568.8243;            0   
    1775;  1569.6996;            0   
    1776;  1570.5748;            0   
    1777;  1571.4501;            1   
    1778;  1572.3254;            0   
    1779;  1573.2007;            0   
    1780;  1574.0759;            0   
    1781;  1574.9512;            0   
    1782;  1575.8265;            0   
    1783;  1576.7018;            0   
    1784;  1577.5770;            0   
    1785;  1578.4523;            1   
    1786;  1579.3276;            0   
    1787;  1580.2029;            0   
    1788;  1581.0781;            0   
    1789;  1581.9534;            0   
    1790;  1582.8287;            0   
    1791;  1583.7040;            0   
    1792;  1584.5792;            1   
    1793;  1585.4545;            1   
    1794;  1586.3298;            1   
    1795;  1587.2051;            1   
    1796;  1588.0803;            0   
    1797;  1588.9556;            1   
    1798;  1589.8309;            0   
    1799;  1590.7062;            0   
    1800;  1591.5814;            2   
    1801;  1592.4567;            1   
    1802;  1593.3320;            0   
    1803;  1594.2073;            0   
    1804;  1595.0825;            0   
    1805;  1595.9578;            0   
    1806;  1596.8331;            1   
    1807;  1597.7084;            0   
    1808;  1598.5836;            0   
    1809;  1599.4589;            1   
    1810;  1600.3342;            0   
    1811;  1601.2095;            0   
    1812;  1602.0847;            0   
    1813;  1602.9600;            1   
    1814;  1603.8353;            0   
    1815;  1604.7106;            0   
    1816;  1605.5858;            0   
    1817;  1606.4611;            0   
    1818;  1607.3364;            0   
    1819;  1608.2117;            1   
    1820;  1609.0869;            0   
    1821;  1609.9622;            0   
    1822;  1610.8375;            0   
    1823;  1611.7128;            0   
    1824;  1612.5880;            0   
    1825;  1613.4633;            0   
    1826;  1614.3386;            0   
    1827;  1615.2139;            1   
    1828;  1616.0891;            0   
    1829;  1616.9644;            3   
    1830;  1617.8397;            0   
    1831;  1618.7150;            0   
    1832;  1619.5902;            2   
    1833;  1620.4655;            0   
    1834;  1621.3408;            0   
    1835;  1622.2161;            0   
    1836;  1623.0913;            1   
    1837;  1623.9666;            0   
    1838;  1624.8419;            1   
    1839;  1625.7172;            0   
    1840;  1626.5924;            1   
    1841;  1627.4677;            0   
    1842;  1628.3430;            0   
    1843;  1629.2183;            0   
    1844;  1630.0935;            1   
    1845;  1630.9688;            1   
    1846;  1631.8441;            0   
    1847;  1632.7194;            0   
    1848;  1633.5946;            0   
    1849;  1634.4699;            0   
    1850;  1635.3452;            1   
    1851;  1636.2205;            0   
    1852;  1637.0957;            0   
    1853;  1637.9710;            1   
    1854;  1638.8463;            0   
    1855;  1639.7216;            0   
    1856;  1640.5968;            0   
    1857;  1641.4721;            0   
    1858;  1642.3474;            0   
    1859;  1643.2227;            0   
    1860;  1644.0979;            0   
    1861;  1644.9732;            0   
    1862;  1645.8485;            0   
    1863;  1646.7238;            0   
    1864;  1647.5990;            0   
    1865;  1648.4743;            0   
    1866;  1649.3496;            0   
    1867;  1650.2249;            0   
    1868;  1651.1001;            1   
    1869;  1651.9754;            0   
    1870;  1652.8507;            1   
    1871;  1653.7260;            0   
    1872;  1654.6012;            0   
    1873;  1655.4765;            0   
    1874;  1656.3518;            2   
    1875;  1657.2271;            0   
    1876;  1658.1023;            0   
    1877;  1658.9776;            0   
    1878;  1659.8529;            1   
    1879;  1660.7282;            0   
    1880;  1661.6034;            0   
    1881;  1662.4787;            0   
    1882;  1663.3540;            0   
    1883;  1664.2293;            1   
    1884;  1665.1045;            0   
    1885;  1665.9798;            0   
    1886;  1666.8551;            0   
    1887;  1667.7304;            1   
    1888;  1668.6056;            0   
    1889;  1669.4809;            1   
    1890;  1670.3562;            0   
    1891;  1671.2315;            1   
    1892;  1672.1067;            0   
    1893;  1672.9820;            0   
    1894;  1673.8573;            0   
    1895;  1674.7326;            0   
    1896;  1675.6078;            0   
    1897;  1676.4831;            0   
    1898;  1677.3584;            0   
    1899;  1678.2337;            0   
    1900;  1679.1089;            0   
    1901;  1679.9842;            0   
    1902;  1680.8595;            0   
    1903;  1681.7348;            0   
    1904;  1682.6100;            0   
    1905;  1683.4853;            0   
    1906;  1684.3606;            0   
    1907;  1685.2359;            0   
    1908;  1686.1111;            0   
    1909;  1686.9864;            0   
    1910;  1687.8617;            0   
    1911;  1688.7370;            0   
    1912;  1689.6122;            0   
    1913;  1690.4875;            0   
    1914;  1691.3628;            0   
    1915;  1692.2381;            0   
    1916;  1693.1133;            1   
    1917;  1693.9886;            0   
    1918;  1694.8639;            0   
    1919;  1695.7392;            0   
    1920;  1696.6144;            0   
    1921;  1697.4897;            0   
    1922;  1698.3650;            0   
    1923;  1699.2403;            0   
    1924;  1700.1155;            0   
    1925;  1700.9908;            0   
    1926;  1701.8661;            0   
    1927;  1702.7414;            0   
    1928;  1703.6166;            1   
    1929;  1704.4919;            0   
    1930;  1705.3672;            0   
    1931;  1706.2425;            1   
    1932;  1707.1177;            0   
    1933;  1707.9930;            0   
    1934;  1708.8683;            0   
    1935;  1709.7436;            0   
    1936;  1710.6188;            0   
    1937;  1711.4941;            0   
    1938;  1712.3694;            0   
    1939;  1713.2447;            1   
    1940;  1714.1199;            0   
    1941;  1714.9952;            0   
    1942;  1715.8705;            0   
    1943;  1716.7458;            0   
    1944;  1717.6210;            0   
    1945;  1718.4963;            1   
    1946;  1719.3716;            0   
    1947;  1720.2469;            0   
    1948;  1721.1221;            0   
    1949;  1721.9974;            0   
    1950;  1722.8727;            2   
    1951;  1723.7480;            0   
    1952;  1724.6232;            0   
    1953;  1725.4985;            0   
    1954;  1726.3738;            0   
    1955;  1727.2491;            0   
    1956;  1728.1243;            3   
    1957;  1728.9996;            3   
    1958;  1729.8749;            0   
    1959;  1730.7502;            0   
    1960;  1731.6254;            0   
    1961;  1732.5007;            0   
    1962;  1733.3760;            0   
    1963;  1734.2513;            0   
    1964;  1735.1265;            1   
    1965;  1736.0018;            2   
    1966;  1736.8771;            0   
    1967;  1737.7524;            0   
    1968;  1738.6276;            0   
    1969;  1739.5029;            0   
    1970;  1740.3782;            0   
    1971;  1741.2535;            0   
    1972;  1742.1287;            1   
    1973;  1743.0040;            0   
    1974;  1743.8793;            0   
    1975;  1744.7546;            0   
    1976;  1745.6298;            0   
    1977;  1746.5051;            0   
    1978;  1747.3804;            0   
    1979;  1748.2557;            1   
    1980;  1749.1309;            0   
    1981;  1750.0062;            0   
    1982;  1750.8815;            0   
    1983;  1751.7568;            0   
    1984;  1752.6320;            0   
    1985;  1753.5073;            0   
    1986;  1754.3826;            0   
    1987;  1755.2579;            0   
    1988;  1756.1331;            0   
    1989;  1757.0084;            0   
    1990;  1757.8837;            0   
    1991;  1758.7590;            0   
    1992;  1759.6342;            0   
    1993;  1760.5095;            0   
    1994;  1761.3848;            0   
    1995;  1762.2601;            0   
    1996;  1763.1353;            0   
    1997;  1764.0106;            0   
    1998;  1764.8859;            0   
    1999;  1765.7612;            0   
    2000;  1766.6364;            0   
    2001;  1767.5117;            0   
    2002;  1768.3870;            0   
    2003;  1769.2623;            0   
    2004;  1770.1375;            0   
    2005;  1771.0128;            0   
    2006;  1771.8881;            0   
    2007;  1772.7634;            0   
    2008;  1773.6386;            0   
    2009;  1774.5139;            0   
    2010;  1775.3892;            0   
    2011;  1776.2645;            0   
    2012;  1777.1397;            0   
    2013;  1778.0150;            0   
    2014;  1778.8903;            0   
    2015;  1779.7656;            0   
    2016;  1780.6408;            0   
    2017;  1781.5161;            0   
    2018;  1782.3914;            0   
    2019;  1783.2667;            0   
    2020;  1784.1419;            0   
    2021;  1785.0172;            0   
    2022;  1785.8925;            0   
    2023;  1786.7678;            0   
    2024;  1787.6430;            0   
    2025;  1788.5183;            0   
    2026;  1789.3936;            0   
    2027;  1790.2689;            0   
    2028;  1791.1441;            0   
    2029;  1792.0194;            0   
    2030;  1792.8947;            0   
    2031;  1793.7700;            0   
    2032;  1794.6452;            0   
    2033;  1795.5205;            0   
    2034;  1796.3958;            0   
    2035;  1797.2711;            0   
    2036;  1798.1463;            0   
    2037;  1799.0216;            0   
    2038;  1799.8969;            0   
    2039;  1800.7722;            0   
    2040;  1801.6474;            0   
    2041;  1802.5227;            0   
    2042;  1803.3980;            0   
    2043;  1804.2733;            0   
    2044;  1805.1485;            0   
    2045;  1806.0238;            0   
    2046;  1806.8991;            0   
    2047;  1807.7744;            0   
    2048;  1808.6496;            0   
ROI Nummer; Anfangskanal; Endkanal; Anfangsenergie keV ; Endenergie keV; Nettoimpulse; Bruttoimpulse; Untergrundimpulse
In den Daten wurden keine Linien gefunden
ROI Nummer; prozentualer Fehler der Lage; Lage keV; FWHM keV; FWTM keV; FWTM/FWHM Verhltnis; H/L Verhltnis
No Peak records found in data.
Name; Energie keV; Flags; Aktivitt uCi/Unit; Aktivittsfehler %; NWG uCi/Unit; MDA Error %
Es wurden keine Nuklidergebnisse gefunden.
Name; Erwartete Endergie keV; Gemessene Energie keV; Differenz von erwarteter keV; FWHM; Flags; Aktivitt uCi/Unit; Aktivittsfehler %
Es wurden keine Nuklidergebnisse gefunden.
