Kanal;   Energie(keV); Impulse
       1;    16.9617;          549   
       2;    17.8370;          626   
       3;    18.7122;          564   
       4;    19.5875;          505   
       5;    20.4628;          525   
       6;    21.3381;          552   
       7;    22.2133;          497   
       8;    23.0886;          577   
       9;    23.9639;          474   
      10;    24.8392;          493   
      11;    25.7144;          508   
      12;    26.5897;          493   
      13;    27.4650;          460   
      14;    28.3403;          463   
      15;    29.2155;          458   
      16;    30.0908;          428   
      17;    30.9661;          433   
      18;    31.8414;          420   
      19;    32.7166;          428   
      20;    33.5919;          443   
      21;    34.4672;          461   
      22;    35.3425;          432   
      23;    36.2177;          424   
      24;    37.0930;          441   
      25;    37.9683;          433   
      26;    38.8436;          422   
      27;    39.7188;          467   
      28;    40.5941;          402   
      29;    41.4694;          388   
      30;    42.3447;          398   
      31;    43.2199;          436   
      32;    44.0952;          422   
      33;    44.9705;          389   
      34;    45.8458;          398   
      35;    46.7210;          373   
      36;    47.5963;          388   
      37;    48.4716;          377   
      38;    49.3469;          392   
      39;    50.2221;          387   
      40;    51.0974;          424   
      41;    51.9727;          411   
      42;    52.8480;          378   
      43;    53.7232;          396   
      44;    54.5985;          410   
      45;    55.4738;          438   
      46;    56.3491;          408   
      47;    57.2243;          382   
      48;    58.0996;          391   
      49;    58.9749;          403   
      50;    59.8502;          400   
      51;    60.7254;          383   
      52;    61.6007;          410   
      53;    62.4760;          405   
      54;    63.3513;          391   
      55;    64.2265;          450   
      56;    65.1018;          412   
      57;    65.9771;          406   
      58;    66.8524;          390   
      59;    67.7276;          412   
      60;    68.6029;          411   
      61;    69.4782;          438   
      62;    70.3535;          414   
      63;    71.2287;          419   
      64;    72.1040;          391   
      65;    72.9793;          445   
      66;    73.8546;          454   
      67;    74.7298;          511   
      68;    75.6051;          560   
      69;    76.4804;          502   
      70;    77.3557;          711   
      71;    78.2309;          619   
      72;    79.1062;          517   
      73;    79.9815;          481   
      74;    80.8568;          456   
      75;    81.7320;          494   
      76;    82.6073;          472   
      77;    83.4826;          490   
      78;    84.3579;          473   
      79;    85.2331;          477   
      80;    86.1084;          525   
      81;    86.9837;          570   
      82;    87.8590;          630   
      83;    88.7342;          517   
      84;    89.6095;          548   
      85;    90.4848;          562   
      86;    91.3601;          544   
      87;    92.2353;          545   
      88;    93.1106;          473   
      89;    93.9859;          513   
      90;    94.8612;          507   
      91;    95.7364;          503   
      92;    96.6117;          502   
      93;    97.4870;          503   
      94;    98.3623;          515   
      95;    99.2375;          511   
      96;   100.1128;          499   
      97;   100.9881;          503   
      98;   101.8634;          553   
      99;   102.7386;          534   
     100;   103.6139;          538   
     101;   104.4892;          552   
     102;   105.3645;          490   
     103;   106.2397;          545   
     104;   107.1150;          503   
     105;   107.9903;          526   
     106;   108.8656;          524   
     107;   109.7408;          515   
     108;   110.6161;          503   
     109;   111.4914;          546   
     110;   112.3667;          510   
     111;   113.2419;          523   
     112;   114.1172;          530   
     113;   114.9925;          540   
     114;   115.8678;          537   
     115;   116.7430;          513   
     116;   117.6183;          521   
     117;   118.4936;          509   
     118;   119.3689;          547   
     119;   120.2441;          575   
     120;   121.1194;          546   
     121;   121.9947;          519   
     122;   122.8700;          525   
     123;   123.7452;          533   
     124;   124.6205;          546   
     125;   125.4958;          532   
     126;   126.3711;          530   
     127;   127.2463;          541   
     128;   128.1216;          494   
     129;   128.9969;          518   
     130;   129.8722;          537   
     131;   130.7474;          526   
     132;   131.6227;          535   
     133;   132.4980;          487   
     134;   133.3733;          532   
     135;   134.2485;          499   
     136;   135.1238;          545   
     137;   135.9991;          541   
     138;   136.8744;          556   
     139;   137.7496;          498   
     140;   138.6249;          526   
     141;   139.5002;          569   
     142;   140.3755;          523   
     143;   141.2507;          502   
     144;   142.1260;          505   
     145;   143.0013;          478   
     146;   143.8766;          491   
     147;   144.7518;          491   
     148;   145.6271;          485   
     149;   146.5024;          497   
     150;   147.3777;          537   
     151;   148.2529;          519   
     152;   149.1282;          484   
     153;   150.0035;          488   
     154;   150.8788;          470   
     155;   151.7540;          492   
     156;   152.6293;          475   
     157;   153.5046;          504   
     158;   154.3799;          499   
     159;   155.2551;          506   
     160;   156.1304;          470   
     161;   157.0057;          473   
     162;   157.8810;          492   
     163;   158.7562;          476   
     164;   159.6315;          494   
     165;   160.5068;          473   
     166;   161.3821;          513   
     167;   162.2573;          481   
     168;   163.1326;          458   
     169;   164.0079;          467   
     170;   164.8832;          475   
     171;   165.7584;          505   
     172;   166.6337;          520   
     173;   167.5090;          452   
     174;   168.3843;          490   
     175;   169.2595;          486   
     176;   170.1348;          445   
     177;   171.0101;          457   
     178;   171.8854;          451   
     179;   172.7606;          512   
     180;   173.6359;          490   
     181;   174.5112;          531   
     182;   175.3865;          461   
     183;   176.2617;          471   
     184;   177.1370;          498   
     185;   178.0123;          549   
     186;   178.8876;          538   
     187;   179.7628;          502   
     188;   180.6381;          489   
     189;   181.5134;          477   
     190;   182.3887;          480   
     191;   183.2639;          522   
     192;   184.1392;          516   
     193;   185.0145;          504   
     194;   185.8898;          474   
     195;   186.7650;          484   
     196;   187.6403;          485   
     197;   188.5156;          478   
     198;   189.3909;          528   
     199;   190.2661;          528   
     200;   191.1414;          446   
     201;   192.0167;          497   
     202;   192.8920;          473   
     203;   193.7672;          464   
     204;   194.6425;          497   
     205;   195.5178;          484   
     206;   196.3931;          452   
     207;   197.2683;          482   
     208;   198.1436;          446   
     209;   199.0189;          490   
     210;   199.8942;          500   
     211;   200.7694;          450   
     212;   201.6447;          479   
     213;   202.5200;          487   
     214;   203.3953;          454   
     215;   204.2705;          464   
     216;   205.1458;          460   
     217;   206.0211;          468   
     218;   206.8964;          455   
     219;   207.7716;          439   
     220;   208.6469;          433   
     221;   209.5222;          451   
     222;   210.3975;          463   
     223;   211.2727;          482   
     224;   212.1480;          447   
     225;   213.0233;          451   
     226;   213.8986;          445   
     227;   214.7738;          452   
     228;   215.6491;          437   
     229;   216.5244;          458   
     230;   217.3997;          417   
     231;   218.2749;          482   
     232;   219.1502;          480   
     233;   220.0255;          435   
     234;   220.9008;          436   
     235;   221.7760;          423   
     236;   222.6513;          423   
     237;   223.5266;          444   
     238;   224.4019;          462   
     239;   225.2771;          458   
     240;   226.1524;          433   
     241;   227.0277;          444   
     242;   227.9030;          468   
     243;   228.7782;          444   
     244;   229.6535;          484   
     245;   230.5288;          417   
     246;   231.4041;          441   
     247;   232.2793;          416   
     248;   233.1546;          428   
     249;   234.0299;          426   
     250;   234.9052;          420   
     251;   235.7804;          435   
     252;   236.6557;          419   
     253;   237.5310;          437   
     254;   238.4063;          426   
     255;   239.2815;          436   
     256;   240.1568;          440   
     257;   241.0321;          444   
     258;   241.9074;          479   
     259;   242.7826;          560   
     260;   243.6579;          460   
     261;   244.5332;          436   
     262;   245.4085;          487   
     263;   246.2837;          437   
     264;   247.1590;          446   
     265;   248.0343;          404   
     266;   248.9096;          391   
     267;   249.7848;          417   
     268;   250.6601;          398   
     269;   251.5354;          414   
     270;   252.4107;          396   
     271;   253.2859;          421   
     272;   254.1612;          403   
     273;   255.0365;          424   
     274;   255.9118;          388   
     275;   256.7870;          421   
     276;   257.6623;          428   
     277;   258.5376;          395   
     278;   259.4129;          412   
     279;   260.2881;          377   
     280;   261.1634;          395   
     281;   262.0387;          403   
     282;   262.9140;          415   
     283;   263.7892;          447   
     284;   264.6645;          367   
     285;   265.5398;          407   
     286;   266.4151;          409   
     287;   267.2903;          386   
     288;   268.1656;          430   
     289;   269.0409;          391   
     290;   269.9162;          454   
     291;   270.7914;          414   
     292;   271.6667;          394   
     293;   272.5420;          394   
     294;   273.4173;          458   
     295;   274.2925;          416   
     296;   275.1678;          438   
     297;   276.0431;          417   
     298;   276.9184;          387   
     299;   277.7936;          373   
     300;   278.6689;          364   
     301;   279.5442;          413   
     302;   280.4195;          400   
     303;   281.2947;          432   
     304;   282.1700;          406   
     305;   283.0453;          418   
     306;   283.9206;          407   
     307;   284.7958;          400   
     308;   285.6711;          371   
     309;   286.5464;          392   
     310;   287.4217;          453   
     311;   288.2969;          414   
     312;   289.1722;          412   
     313;   290.0475;          403   
     314;   290.9228;          411   
     315;   291.7980;          364   
     316;   292.6733;          368   
     317;   293.5486;          414   
     318;   294.4239;          380   
     319;   295.2991;          422   
     320;   296.1744;          409   
     321;   297.0497;          459   
     322;   297.9250;          413   
     323;   298.8002;          407   
     324;   299.6755;          470   
     325;   300.5508;          432   
     326;   301.4261;          437   
     327;   302.3013;          393   
     328;   303.1766;          421   
     329;   304.0519;          433   
     330;   304.9272;          410   
     331;   305.8024;          412   
     332;   306.6777;          414   
     333;   307.5530;          405   
     334;   308.4283;          427   
     335;   309.3035;          375   
     336;   310.1788;          437   
     337;   311.0541;          412   
     338;   311.9294;          398   
     339;   312.8046;          396   
     340;   313.6799;          420   
     341;   314.5552;          414   
     342;   315.4305;          424   
     343;   316.3057;          466   
     344;   317.1810;          397   
     345;   318.0563;          430   
     346;   318.9316;          390   
     347;   319.8068;          419   
     348;   320.6821;          430   
     349;   321.5574;          408   
     350;   322.4327;          400   
     351;   323.3079;          436   
     352;   324.1832;          436   
     353;   325.0585;          422   
     354;   325.9338;          448   
     355;   326.8090;          416   
     356;   327.6843;          443   
     357;   328.5596;          428   
     358;   329.4349;          405   
     359;   330.3101;          441   
     360;   331.1854;          438   
     361;   332.0607;          443   
     362;   332.9360;          422   
     363;   333.8112;          422   
     364;   334.6865;          439   
     365;   335.5618;          444   
     366;   336.4371;          415   
     367;   337.3123;          410   
     368;   338.1876;          436   
     369;   339.0629;          436   
     370;   339.9382;          418   
     371;   340.8134;          408   
     372;   341.6887;          433   
     373;   342.5640;          448   
     374;   343.4393;          482   
     375;   344.3145;          405   
     376;   345.1898;          368   
     377;   346.0651;          362   
     378;   346.9404;          324   
     379;   347.8156;          341   
     380;   348.6909;          310   
     381;   349.5662;          297   
     382;   350.4415;          282   
     383;   351.3167;          301   
     384;   352.1920;          292   
     385;   353.0673;          281   
     386;   353.9426;          271   
     387;   354.8178;          277   
     388;   355.6931;          329   
     389;   356.5684;          333   
     390;   357.4437;          310   
     391;   358.3189;          275   
     392;   359.1942;          279   
     393;   360.0695;          265   
     394;   360.9448;          273   
     395;   361.8200;          217   
     396;   362.6953;          248   
     397;   363.5706;          253   
     398;   364.4459;          238   
     399;   365.3211;          247   
     400;   366.1964;          267   
     401;   367.0717;          277   
     402;   367.9470;          224   
     403;   368.8222;          233   
     404;   369.6975;          234   
     405;   370.5728;          238   
     406;   371.4481;          232   
     407;   372.3233;          228   
     408;   373.1986;          238   
     409;   374.0739;          211   
     410;   374.9492;          217   
     411;   375.8244;          216   
     412;   376.6997;          229   
     413;   377.5750;          230   
     414;   378.4503;          192   
     415;   379.3255;          226   
     416;   380.2008;          205   
     417;   381.0761;          232   
     418;   381.9514;          207   
     419;   382.8266;          187   
     420;   383.7019;          192   
     421;   384.5772;          228   
     422;   385.4525;          179   
     423;   386.3277;          202   
     424;   387.2030;          218   
     425;   388.0783;          209   
     426;   388.9536;          199   
     427;   389.8288;          210   
     428;   390.7041;          181   
     429;   391.5794;          197   
     430;   392.4547;          189   
     431;   393.3299;          207   
     432;   394.2052;          197   
     433;   395.0805;          196   
     434;   395.9558;          188   
     435;   396.8310;          191   
     436;   397.7063;          165   
     437;   398.5816;          200   
     438;   399.4569;          162   
     439;   400.3321;          172   
     440;   401.2074;          195   
     441;   402.0827;          185   
     442;   402.9580;          171   
     443;   403.8332;          182   
     444;   404.7085;          156   
     445;   405.5838;          167   
     446;   406.4591;          156   
     447;   407.3343;          158   
     448;   408.2096;          158   
     449;   409.0849;          166   
     450;   409.9602;          149   
     451;   410.8354;          178   
     452;   411.7107;          163   
     453;   412.5860;          153   
     454;   413.4613;          154   
     455;   414.3365;          140   
     456;   415.2118;          165   
     457;   416.0871;          165   
     458;   416.9624;          145   
     459;   417.8376;          155   
     460;   418.7129;          142   
     461;   419.5882;          146   
     462;   420.4635;          131   
     463;   421.3387;          150   
     464;   422.2140;          154   
     465;   423.0893;          146   
     466;   423.9646;          131   
     467;   424.8398;          148   
     468;   425.7151;          141   
     469;   426.5904;          150   
     470;   427.4657;          136   
     471;   428.3409;          153   
     472;   429.2162;          140   
     473;   430.0915;          155   
     474;   430.9668;          147   
     475;   431.8420;          132   
     476;   432.7173;          134   
     477;   433.5926;          139   
     478;   434.4679;          139   
     479;   435.3431;          143   
     480;   436.2184;          150   
     481;   437.0937;          136   
     482;   437.9690;          141   
     483;   438.8442;          154   
     484;   439.7195;          144   
     485;   440.5948;          152   
     486;   441.4701;          150   
     487;   442.3453;          148   
     488;   443.2206;          135   
     489;   444.0959;          122   
     490;   444.9712;          141   
     491;   445.8464;          141   
     492;   446.7217;          136   
     493;   447.5970;          123   
     494;   448.4723;          116   
     495;   449.3475;          136   
     496;   450.2228;          151   
     497;   451.0981;          140   
     498;   451.9734;          118   
     499;   452.8486;          143   
     500;   453.7239;          132   
     501;   454.5992;          133   
     502;   455.4745;          142   
     503;   456.3497;          133   
     504;   457.2250;          127   
     505;   458.1003;          145   
     506;   458.9756;          111   
     507;   459.8508;          134   
     508;   460.7261;          156   
     509;   461.6014;          138   
     510;   462.4767;          120   
     511;   463.3519;          123   
     512;   464.2272;          117   
     513;   465.1025;          129   
     514;   465.9778;          148   
     515;   466.8530;          128   
     516;   467.7283;          133   
     517;   468.6036;          130   
     518;   469.4789;          126   
     519;   470.3541;          128   
     520;   471.2294;          117   
     521;   472.1047;          140   
     522;   472.9800;          129   
     523;   473.8552;          112   
     524;   474.7305;          116   
     525;   475.6058;          123   
     526;   476.4811;          123   
     527;   477.3563;          108   
     528;   478.2316;          129   
     529;   479.1069;          115   
     530;   479.9822;          130   
     531;   480.8574;          138   
     532;   481.7327;          125   
     533;   482.6080;          143   
     534;   483.4833;          106   
     535;   484.3585;          122   
     536;   485.2338;          117   
     537;   486.1091;          146   
     538;   486.9844;          126   
     539;   487.8596;          134   
     540;   488.7349;          126   
     541;   489.6102;           96   
     542;   490.4855;          116   
     543;   491.3607;          128   
     544;   492.2360;          130   
     545;   493.1113;          151   
     546;   493.9866;          137   
     547;   494.8618;          134   
     548;   495.7371;          120   
     549;   496.6124;          103   
     550;   497.4877;          114   
     551;   498.3629;          116   
     552;   499.2382;          105   
     553;   500.1135;          131   
     554;   500.9888;          128   
     555;   501.8640;          109   
     556;   502.7393;           97   
     557;   503.6146;          109   
     558;   504.4899;          110   
     559;   505.3651;          119   
     560;   506.2404;           97   
     561;   507.1157;          107   
     562;   507.9910;          132   
     563;   508.8662;          114   
     564;   509.7415;          104   
     565;   510.6168;          112   
     566;   511.4921;          137   
     567;   512.3673;          189   
     568;   513.2426;          421   
     569;   514.1179;         1308   
     570;   514.9932;         3976   
     571;   515.8684;         7968   
     572;   516.7437;        11201   
     573;   517.6190;         9821   
     574;   518.4943;         5676   
     575;   519.3695;         2270   
     576;   520.2448;          728   
     577;   521.1201;          220   
     578;   521.9954;          137   
     579;   522.8706;          129   
     580;   523.7459;           92   
     581;   524.6212;           90   
     582;   525.4965;           85   
     583;   526.3717;           64   
     584;   527.2470;           76   
     585;   528.1223;           88   
     586;   528.9976;           86   
     587;   529.8728;           67   
     588;   530.7481;           90   
     589;   531.6234;           77   
     590;   532.4987;           67   
     591;   533.3739;           79   
     592;   534.2492;           66   
     593;   535.1245;           76   
     594;   535.9998;           77   
     595;   536.8750;           90   
     596;   537.7503;           75   
     597;   538.6256;           72   
     598;   539.5009;           67   
     599;   540.3761;           86   
     600;   541.2514;           82   
     601;   542.1267;           87   
     602;   543.0020;           79   
     603;   543.8772;           72   
     604;   544.7525;           87   
     605;   545.6278;           79   
     606;   546.5031;           74   
     607;   547.3783;           62   
     608;   548.2536;           77   
     609;   549.1289;           67   
     610;   550.0042;           64   
     611;   550.8794;           62   
     612;   551.7547;           65   
     613;   552.6300;           71   
     614;   553.5053;           70   
     615;   554.3805;           72   
     616;   555.2558;           70   
     617;   556.1311;           70   
     618;   557.0064;           90   
     619;   557.8816;           84   
     620;   558.7569;           52   
     621;   559.6322;           78   
     622;   560.5075;           75   
     623;   561.3827;           79   
     624;   562.2580;           67   
     625;   563.1333;           76   
     626;   564.0086;           69   
     627;   564.8838;           77   
     628;   565.7591;           67   
     629;   566.6344;           63   
     630;   567.5097;           66   
     631;   568.3849;           76   
     632;   569.2602;           76   
     633;   570.1355;           76   
     634;   571.0108;           77   
     635;   571.8860;           67   
     636;   572.7613;           65   
     637;   573.6366;           83   
     638;   574.5119;           67   
     639;   575.3871;           60   
     640;   576.2624;           68   
     641;   577.1377;           60   
     642;   578.0130;           70   
     643;   578.8882;           66   
     644;   579.7635;           65   
     645;   580.6388;           70   
     646;   581.5141;           75   
     647;   582.3893;           90   
     648;   583.2646;           83   
     649;   584.1399;           62   
     650;   585.0152;           69   
     651;   585.8904;           70   
     652;   586.7657;           63   
     653;   587.6410;           75   
     654;   588.5163;          105   
     655;   589.3915;          128   
     656;   590.2668;          125   
     657;   591.1421;           72   
     658;   592.0174;           84   
     659;   592.8926;           72   
     660;   593.7679;           78   
     661;   594.6432;           63   
     662;   595.5185;           77   
     663;   596.3937;           65   
     664;   597.2690;           63   
     665;   598.1443;           68   
     666;   599.0196;           63   
     667;   599.8948;           77   
     668;   600.7701;           73   
     669;   601.6454;           76   
     670;   602.5207;           68   
     671;   603.3959;           65   
     672;   604.2712;           58   
     673;   605.1465;           58   
     674;   606.0218;           68   
     675;   606.8970;           74   
     676;   607.7723;           63   
     677;   608.6476;           62   
     678;   609.5229;           58   
     679;   610.3981;           63   
     680;   611.2734;           64   
     681;   612.1487;           55   
     682;   613.0240;           78   
     683;   613.8992;           73   
     684;   614.7745;           95   
     685;   615.6498;          113   
     686;   616.5251;          122   
     687;   617.4003;           81   
     688;   618.2756;           68   
     689;   619.1509;           80   
     690;   620.0262;           77   
     691;   620.9014;           57   
     692;   621.7767;           67   
     693;   622.6520;           62   
     694;   623.5273;           68   
     695;   624.4025;           57   
     696;   625.2778;           59   
     697;   626.1531;           50   
     698;   627.0284;           58   
     699;   627.9036;           81   
     700;   628.7789;           72   
     701;   629.6542;           70   
     702;   630.5295;           70   
     703;   631.4047;           70   
     704;   632.2800;           74   
     705;   633.1553;           64   
     706;   634.0306;           53   
     707;   634.9058;           63   
     708;   635.7811;           58   
     709;   636.6564;           63   
     710;   637.5317;           65   
     711;   638.4069;           79   
     712;   639.2822;           58   
     713;   640.1575;           67   
     714;   641.0328;           65   
     715;   641.9080;           60   
     716;   642.7833;           53   
     717;   643.6586;           54   
     718;   644.5339;           53   
     719;   645.4091;           65   
     720;   646.2844;           75   
     721;   647.1597;           48   
     722;   648.0350;           61   
     723;   648.9102;           64   
     724;   649.7855;           73   
     725;   650.6608;           74   
     726;   651.5361;           64   
     727;   652.4113;           63   
     728;   653.2866;           67   
     729;   654.1619;           60   
     730;   655.0372;           66   
     731;   655.9124;           69   
     732;   656.7877;           65   
     733;   657.6630;           64   
     734;   658.5383;           59   
     735;   659.4135;           64   
     736;   660.2888;           52   
     737;   661.1641;           70   
     738;   662.0394;           49   
     739;   662.9146;           52   
     740;   663.7899;           67   
     741;   664.6652;           67   
     742;   665.5405;           58   
     743;   666.4157;           70   
     744;   667.2910;           68   
     745;   668.1663;           56   
     746;   669.0416;           82   
     747;   669.9168;           56   
     748;   670.7921;           52   
     749;   671.6674;           62   
     750;   672.5427;           68   
     751;   673.4179;           68   
     752;   674.2932;           60   
     753;   675.1685;           61   
     754;   676.0438;           60   
     755;   676.9190;           64   
     756;   677.7943;           61   
     757;   678.6696;           64   
     758;   679.5449;           73   
     759;   680.4201;           58   
     760;   681.2954;           63   
     761;   682.1707;           58   
     762;   683.0460;           72   
     763;   683.9212;           64   
     764;   684.7965;           66   
     765;   685.6718;           56   
     766;   686.5471;           73   
     767;   687.4223;           50   
     768;   688.2976;           62   
     769;   689.1729;           64   
     770;   690.0482;           61   
     771;   690.9234;           78   
     772;   691.7987;           64   
     773;   692.6740;           61   
     774;   693.5493;           77   
     775;   694.4245;           59   
     776;   695.2998;           53   
     777;   696.1751;           74   
     778;   697.0504;           49   
     779;   697.9256;           50   
     780;   698.8009;           53   
     781;   699.6762;           83   
     782;   700.5515;           55   
     783;   701.4267;           67   
     784;   702.3020;           55   
     785;   703.1773;           64   
     786;   704.0526;           56   
     787;   704.9278;           83   
     788;   705.8031;           50   
     789;   706.6784;           58   
     790;   707.5537;           62   
     791;   708.4289;           55   
     792;   709.3042;           66   
     793;   710.1795;           55   
     794;   711.0548;           63   
     795;   711.9300;           57   
     796;   712.8053;           58   
     797;   713.6806;           61   
     798;   714.5559;           70   
     799;   715.4311;           79   
     800;   716.3064;           45   
     801;   717.1817;           57   
     802;   718.0570;           46   
     803;   718.9322;           64   
     804;   719.8075;           54   
     805;   720.6828;           60   
     806;   721.5581;           68   
     807;   722.4333;           65   
     808;   723.3086;           48   
     809;   724.1839;           61   
     810;   725.0592;           60   
     811;   725.9344;           68   
     812;   726.8097;           58   
     813;   727.6850;           50   
     814;   728.5603;           70   
     815;   729.4355;           65   
     816;   730.3108;           69   
     817;   731.1861;           59   
     818;   732.0614;           63   
     819;   732.9366;           67   
     820;   733.8119;           75   
     821;   734.6872;           77   
     822;   735.5625;           79   
     823;   736.4377;           57   
     824;   737.3130;           50   
     825;   738.1883;           65   
     826;   739.0636;           61   
     827;   739.9388;           53   
     828;   740.8141;           68   
     829;   741.6894;           58   
     830;   742.5647;           53   
     831;   743.4399;           64   
     832;   744.3152;           69   
     833;   745.1905;           52   
     834;   746.0658;           49   
     835;   746.9410;           56   
     836;   747.8163;           56   
     837;   748.6916;           67   
     838;   749.5669;           72   
     839;   750.4421;           68   
     840;   751.3174;           73   
     841;   752.1927;           65   
     842;   753.0680;           40   
     843;   753.9432;           56   
     844;   754.8185;           72   
     845;   755.6938;           55   
     846;   756.5691;           44   
     847;   757.4443;           78   
     848;   758.3196;           56   
     849;   759.1949;           69   
     850;   760.0702;           63   
     851;   760.9454;           69   
     852;   761.8207;           67   
     853;   762.6960;           65   
     854;   763.5713;           59   
     855;   764.4465;           79   
     856;   765.3218;           55   
     857;   766.1971;           59   
     858;   767.0724;           50   
     859;   767.9476;           59   
     860;   768.8229;           69   
     861;   769.6982;           76   
     862;   770.5735;           76   
     863;   771.4487;           78   
     864;   772.3240;           67   
     865;   773.1993;           54   
     866;   774.0746;           64   
     867;   774.9498;           61   
     868;   775.8251;           60   
     869;   776.7004;           58   
     870;   777.5757;           61   
     871;   778.4509;           56   
     872;   779.3262;           57   
     873;   780.2015;           53   
     874;   781.0768;           51   
     875;   781.9520;           67   
     876;   782.8273;           60   
     877;   783.7026;           58   
     878;   784.5779;           54   
     879;   785.4531;           45   
     880;   786.3284;           74   
     881;   787.2037;           56   
     882;   788.0790;           60   
     883;   788.9542;           62   
     884;   789.8295;           54   
     885;   790.7048;           46   
     886;   791.5801;           57   
     887;   792.4553;           58   
     888;   793.3306;           72   
     889;   794.2059;           71   
     890;   795.0812;           64   
     891;   795.9564;           64   
     892;   796.8317;           58   
     893;   797.7070;           59   
     894;   798.5823;           59   
     895;   799.4575;           53   
     896;   800.3328;           52   
     897;   801.2081;           59   
     898;   802.0834;           70   
     899;   802.9586;           74   
     900;   803.8339;           69   
     901;   804.7092;           68   
     902;   805.5845;           75   
     903;   806.4597;           58   
     904;   807.3350;           64   
     905;   808.2103;           71   
     906;   809.0856;           58   
     907;   809.9608;           61   
     908;   810.8361;           54   
     909;   811.7114;           69   
     910;   812.5867;           75   
     911;   813.4619;           60   
     912;   814.3372;           71   
     913;   815.2125;           59   
     914;   816.0878;           55   
     915;   816.9631;           71   
     916;   817.8383;           64   
     917;   818.7136;           67   
     918;   819.5889;           61   
     919;   820.4642;           68   
     920;   821.3394;           66   
     921;   822.2147;           65   
     922;   823.0900;           53   
     923;   823.9653;           54   
     924;   824.8405;           50   
     925;   825.7158;           68   
     926;   826.5911;           65   
     927;   827.4664;           55   
     928;   828.3416;           71   
     929;   829.2169;           68   
     930;   830.0922;           66   
     931;   830.9675;           56   
     932;   831.8427;           61   
     933;   832.7180;           52   
     934;   833.5933;           69   
     935;   834.4686;           57   
     936;   835.3438;           63   
     937;   836.2191;           61   
     938;   837.0944;           60   
     939;   837.9697;           65   
     940;   838.8449;           55   
     941;   839.7202;           74   
     942;   840.5955;           61   
     943;   841.4708;           53   
     944;   842.3460;           62   
     945;   843.2213;           59   
     946;   844.0966;           68   
     947;   844.9719;           67   
     948;   845.8471;           74   
     949;   846.7224;           63   
     950;   847.5977;           66   
     951;   848.4730;           66   
     952;   849.3482;           58   
     953;   850.2235;           74   
     954;   851.0988;           55   
     955;   851.9741;           60   
     956;   852.8493;           75   
     957;   853.7246;           54   
     958;   854.5999;           70   
     959;   855.4752;           60   
     960;   856.3504;           51   
     961;   857.2257;           69   
     962;   858.1010;           50   
     963;   858.9763;           61   
     964;   859.8515;           58   
     965;   860.7268;           66   
     966;   861.6021;           67   
     967;   862.4774;           48   
     968;   863.3526;           69   
     969;   864.2279;           59   
     970;   865.1032;           51   
     971;   865.9785;           78   
     972;   866.8537;           51   
     973;   867.7290;           61   
     974;   868.6043;           74   
     975;   869.4796;           67   
     976;   870.3548;           62   
     977;   871.2301;           61   
     978;   872.1054;           61   
     979;   872.9807;           55   
     980;   873.8559;           66   
     981;   874.7312;           64   
     982;   875.6065;           70   
     983;   876.4818;           55   
     984;   877.3570;           65   
     985;   878.2323;           55   
     986;   879.1076;           74   
     987;   879.9829;           51   
     988;   880.8581;           65   
     989;   881.7334;           64   
     990;   882.6087;           85   
     991;   883.4840;           56   
     992;   884.3592;           70   
     993;   885.2345;           63   
     994;   886.1098;           60   
     995;   886.9851;           73   
     996;   887.8603;           49   
     997;   888.7356;           65   
     998;   889.6109;           64   
     999;   890.4862;           47   
    1000;   891.3614;           67   
    1001;   892.2367;           56   
    1002;   893.1120;           76   
    1003;   893.9873;           35   
    1004;   894.8625;           59   
    1005;   895.7378;           65   
    1006;   896.6131;           71   
    1007;   897.4884;           58   
    1008;   898.3636;           79   
    1009;   899.2389;           86   
    1010;   900.1142;           68   
    1011;   900.9895;           56   
    1012;   901.8647;           78   
    1013;   902.7400;           67   
    1014;   903.6153;           71   
    1015;   904.4906;           66   
    1016;   905.3658;           60   
    1017;   906.2411;           63   
    1018;   907.1164;           68   
    1019;   907.9917;           60   
    1020;   908.8669;           73   
    1021;   909.7422;           56   
    1022;   910.6175;           47   
    1023;   911.4928;           73   
    1024;   912.3680;           66   
    1025;   913.2433;           76   
    1026;   914.1186;           49   
    1027;   914.9939;           72   
    1028;   915.8691;           81   
    1029;   916.7444;           70   
    1030;   917.6197;           67   
    1031;   918.4950;           88   
    1032;   919.3702;           97   
    1033;   920.2455;          113   
    1034;   921.1208;           78   
    1035;   921.9961;           75   
    1036;   922.8713;           74   
    1037;   923.7466;           85   
    1038;   924.6219;           66   
    1039;   925.4972;           66   
    1040;   926.3724;           82   
    1041;   927.2477;           76   
    1042;   928.1230;           65   
    1043;   928.9983;           82   
    1044;   929.8735;           66   
    1045;   930.7488;           68   
    1046;   931.6241;           71   
    1047;   932.4994;           71   
    1048;   933.3746;           79   
    1049;   934.2499;           57   
    1050;   935.1252;           70   
    1051;   936.0005;           81   
    1052;   936.8757;           56   
    1053;   937.7510;           79   
    1054;   938.6263;           56   
    1055;   939.5016;           70   
    1056;   940.3768;           67   
    1057;   941.2521;           78   
    1058;   942.1274;           69   
    1059;   943.0027;           78   
    1060;   943.8779;           60   
    1061;   944.7532;           65   
    1062;   945.6285;           69   
    1063;   946.5038;           85   
    1064;   947.3790;           68   
    1065;   948.2543;           83   
    1066;   949.1296;           55   
    1067;   950.0049;           59   
    1068;   950.8801;           67   
    1069;   951.7554;           75   
    1070;   952.6307;           69   
    1071;   953.5060;           66   
    1072;   954.3812;           67   
    1073;   955.2565;           67   
    1074;   956.1318;           80   
    1075;   957.0071;           64   
    1076;   957.8823;           65   
    1077;   958.7576;           82   
    1078;   959.6329;           85   
    1079;   960.5082;           71   
    1080;   961.3834;           73   
    1081;   962.2587;           79   
    1082;   963.1340;           76   
    1083;   964.0093;           76   
    1084;   964.8845;           74   
    1085;   965.7598;           71   
    1086;   966.6351;           65   
    1087;   967.5104;           70   
    1088;   968.3856;           76   
    1089;   969.2609;           76   
    1090;   970.1362;           77   
    1091;   971.0115;           72   
    1092;   971.8867;           74   
    1093;   972.7620;           81   
    1094;   973.6373;           76   
    1095;   974.5126;           84   
    1096;   975.3878;           90   
    1097;   976.2631;           71   
    1098;   977.1384;          101   
    1099;   978.0137;          102   
    1100;   978.8889;           91   
    1101;   979.7642;           83   
    1102;   980.6395;           84   
    1103;   981.5148;           80   
    1104;   982.3900;           78   
    1105;   983.2653;           67   
    1106;   984.1406;           85   
    1107;   985.0159;           80   
    1108;   985.8911;           76   
    1109;   986.7664;           78   
    1110;   987.6417;           86   
    1111;   988.5170;           85   
    1112;   989.3922;           75   
    1113;   990.2675;           85   
    1114;   991.1428;           71   
    1115;   992.0181;           85   
    1116;   992.8933;           75   
    1117;   993.7686;           83   
    1118;   994.6439;           73   
    1119;   995.5192;           82   
    1120;   996.3944;           82   
    1121;   997.2697;           74   
    1122;   998.1450;           89   
    1123;   999.0203;           75   
    1124;   999.8955;           91   
    1125;  1000.7708;           70   
    1126;  1001.6461;           92   
    1127;  1002.5214;           77   
    1128;  1003.3966;           88   
    1129;  1004.2719;           93   
    1130;  1005.1472;           73   
    1131;  1006.0225;           75   
    1132;  1006.8977;           93   
    1133;  1007.7730;           79   
    1134;  1008.6483;           93   
    1135;  1009.5236;           71   
    1136;  1010.3988;           81   
    1137;  1011.2741;           77   
    1138;  1012.1494;           70   
    1139;  1013.0247;           77   
    1140;  1013.8999;           81   
    1141;  1014.7752;           87   
    1142;  1015.6505;           81   
    1143;  1016.5258;           91   
    1144;  1017.4010;           95   
    1145;  1018.2763;           78   
    1146;  1019.1516;           88   
    1147;  1020.0269;           83   
    1148;  1020.9021;           91   
    1149;  1021.7774;           87   
    1150;  1022.6527;          101   
    1151;  1023.5280;           83   
    1152;  1024.4032;           95   
    1153;  1025.2785;           81   
    1154;  1026.1538;           92   
    1155;  1027.0291;           87   
    1156;  1027.9043;           92   
    1157;  1028.7796;           89   
    1158;  1029.6549;           90   
    1159;  1030.5302;           86   
    1160;  1031.4054;          116   
    1161;  1032.2807;           87   
    1162;  1033.1560;           79   
    1163;  1034.0313;           91   
    1164;  1034.9065;          107   
    1165;  1035.7818;           95   
    1166;  1036.6571;           89   
    1167;  1037.5324;           97   
    1168;  1038.4076;           83   
    1169;  1039.2829;           88   
    1170;  1040.1582;           90   
    1171;  1041.0335;           85   
    1172;  1041.9087;           92   
    1173;  1042.7840;           99   
    1174;  1043.6593;           91   
    1175;  1044.5346;          103   
    1176;  1045.4098;           90   
    1177;  1046.2851;           94   
    1178;  1047.1604;           89   
    1179;  1048.0357;           83   
    1180;  1048.9109;           90   
    1181;  1049.7862;          117   
    1182;  1050.6615;           98   
    1183;  1051.5368;           98   
    1184;  1052.4120;          104   
    1185;  1053.2873;          103   
    1186;  1054.1626;          100   
    1187;  1055.0379;          103   
    1188;  1055.9131;           99   
    1189;  1056.7884;           91   
    1190;  1057.6637;           93   
    1191;  1058.5390;          103   
    1192;  1059.4142;          111   
    1193;  1060.2895;           92   
    1194;  1061.1648;           98   
    1195;  1062.0401;           99   
    1196;  1062.9153;           95   
    1197;  1063.7906;           85   
    1198;  1064.6659;           94   
    1199;  1065.5412;           93   
    1200;  1066.4164;          114   
    1201;  1067.2917;           91   
    1202;  1068.1670;           96   
    1203;  1069.0423;           92   
    1204;  1069.9175;           83   
    1205;  1070.7928;           83   
    1206;  1071.6681;           79   
    1207;  1072.5434;           61   
    1208;  1073.4186;           85   
    1209;  1074.2939;           76   
    1210;  1075.1692;           70   
    1211;  1076.0445;           69   
    1212;  1076.9197;          100   
    1213;  1077.7950;           69   
    1214;  1078.6703;           72   
    1215;  1079.5456;           71   
    1216;  1080.4208;           56   
    1217;  1081.2961;           68   
    1218;  1082.1714;           68   
    1219;  1083.0467;           76   
    1220;  1083.9219;           75   
    1221;  1084.7972;           62   
    1222;  1085.6725;           57   
    1223;  1086.5478;           78   
    1224;  1087.4230;           55   
    1225;  1088.2983;           59   
    1226;  1089.1736;           66   
    1227;  1090.0489;           62   
    1228;  1090.9241;           55   
    1229;  1091.7994;           63   
    1230;  1092.6747;           63   
    1231;  1093.5500;           73   
    1232;  1094.4252;           60   
    1233;  1095.3005;           66   
    1234;  1096.1758;           68   
    1235;  1097.0511;           44   
    1236;  1097.9263;           74   
    1237;  1098.8016;           68   
    1238;  1099.6769;           47   
    1239;  1100.5522;           51   
    1240;  1101.4274;           58   
    1241;  1102.3027;           48   
    1242;  1103.1780;           60   
    1243;  1104.0533;           50   
    1244;  1104.9285;           51   
    1245;  1105.8038;           59   
    1246;  1106.6791;           50   
    1247;  1107.5544;           58   
    1248;  1108.4296;           58   
    1249;  1109.3049;           65   
    1250;  1110.1802;           51   
    1251;  1111.0555;           53   
    1252;  1111.9307;           57   
    1253;  1112.8060;           54   
    1254;  1113.6813;           44   
    1255;  1114.5566;           58   
    1256;  1115.4318;           58   
    1257;  1116.3071;           51   
    1258;  1117.1824;           60   
    1259;  1118.0577;           59   
    1260;  1118.9329;           61   
    1261;  1119.8082;           53   
    1262;  1120.6835;           57   
    1263;  1121.5588;           50   
    1264;  1122.4340;           49   
    1265;  1123.3093;           59   
    1266;  1124.1846;           37   
    1267;  1125.0599;           43   
    1268;  1125.9351;           42   
    1269;  1126.8104;           59   
    1270;  1127.6857;           51   
    1271;  1128.5610;           67   
    1272;  1129.4362;           64   
    1273;  1130.3115;           59   
    1274;  1131.1868;           69   
    1275;  1132.0621;           62   
    1276;  1132.9373;           65   
    1277;  1133.8126;           48   
    1278;  1134.6879;           50   
    1279;  1135.5632;           54   
    1280;  1136.4384;           51   
    1281;  1137.3137;           63   
    1282;  1138.1890;           49   
    1283;  1139.0643;           43   
    1284;  1139.9395;           41   
    1285;  1140.8148;           52   
    1286;  1141.6901;           53   
    1287;  1142.5654;           36   
    1288;  1143.4406;           41   
    1289;  1144.3159;           42   
    1290;  1145.1912;           48   
    1291;  1146.0665;           45   
    1292;  1146.9417;           41   
    1293;  1147.8170;           40   
    1294;  1148.6923;           28   
    1295;  1149.5676;           34   
    1296;  1150.4428;           28   
    1297;  1151.3181;           46   
    1298;  1152.1934;           51   
    1299;  1153.0687;           47   
    1300;  1153.9439;           49   
    1301;  1154.8192;           25   
    1302;  1155.6945;           45   
    1303;  1156.5698;           44   
    1304;  1157.4450;           39   
    1305;  1158.3203;           36   
    1306;  1159.1956;           41   
    1307;  1160.0709;           39   
    1308;  1160.9461;           36   
    1309;  1161.8214;           36   
    1310;  1162.6967;           39   
    1311;  1163.5720;           28   
    1312;  1164.4472;           37   
    1313;  1165.3225;           44   
    1314;  1166.1978;           39   
    1315;  1167.0731;           46   
    1316;  1167.9483;           26   
    1317;  1168.8236;           36   
    1318;  1169.6989;           35   
    1319;  1170.5742;           32   
    1320;  1171.4494;           36   
    1321;  1172.3247;           35   
    1322;  1173.2000;           33   
    1323;  1174.0753;           33   
    1324;  1174.9505;           30   
    1325;  1175.8258;           31   
    1326;  1176.7011;           27   
    1327;  1177.5764;           32   
    1328;  1178.4516;           31   
    1329;  1179.3269;           36   
    1330;  1180.2022;           39   
    1331;  1181.0775;           37   
    1332;  1181.9527;           32   
    1333;  1182.8280;           31   
    1334;  1183.7033;           45   
    1335;  1184.5786;           34   
    1336;  1185.4538;           42   
    1337;  1186.3291;           31   
    1338;  1187.2044;           25   
    1339;  1188.0797;           29   
    1340;  1188.9549;           26   
    1341;  1189.8302;           31   
    1342;  1190.7055;           30   
    1343;  1191.5808;           22   
    1344;  1192.4560;           19   
    1345;  1193.3313;           23   
    1346;  1194.2066;           30   
    1347;  1195.0819;           33   
    1348;  1195.9571;           30   
    1349;  1196.8324;           39   
    1350;  1197.7077;           22   
    1351;  1198.5830;           22   
    1352;  1199.4582;           33   
    1353;  1200.3335;           37   
    1354;  1201.2088;           39   
    1355;  1202.0841;           24   
    1356;  1202.9593;           30   
    1357;  1203.8346;           29   
    1358;  1204.7099;           28   
    1359;  1205.5852;           29   
    1360;  1206.4604;           30   
    1361;  1207.3357;           29   
    1362;  1208.2110;           30   
    1363;  1209.0863;           32   
    1364;  1209.9615;           31   
    1365;  1210.8368;           24   
    1366;  1211.7121;           31   
    1367;  1212.5874;           25   
    1368;  1213.4626;           31   
    1369;  1214.3379;           33   
    1370;  1215.2132;           20   
    1371;  1216.0885;           25   
    1372;  1216.9637;           14   
    1373;  1217.8390;           29   
    1374;  1218.7143;           22   
    1375;  1219.5896;           31   
    1376;  1220.4648;           34   
    1377;  1221.3401;           32   
    1378;  1222.2154;           28   
    1379;  1223.0907;           25   
    1380;  1223.9659;           25   
    1381;  1224.8412;           34   
    1382;  1225.7165;           30   
    1383;  1226.5918;           25   
    1384;  1227.4670;           35   
    1385;  1228.3423;           29   
    1386;  1229.2176;           29   
    1387;  1230.0929;           34   
    1388;  1230.9681;           33   
    1389;  1231.8434;           31   
    1390;  1232.7187;           30   
    1391;  1233.5940;           26   
    1392;  1234.4692;           20   
    1393;  1235.3445;           19   
    1394;  1236.2198;           35   
    1395;  1237.0951;           29   
    1396;  1237.9703;           27   
    1397;  1238.8456;           35   
    1398;  1239.7209;           24   
    1399;  1240.5962;           26   
    1400;  1241.4714;           35   
    1401;  1242.3467;           23   
    1402;  1243.2220;           30   
    1403;  1244.0973;           19   
    1404;  1244.9725;           34   
    1405;  1245.8478;           27   
    1406;  1246.7231;           28   
    1407;  1247.5984;           30   
    1408;  1248.4736;           44   
    1409;  1249.3489;           32   
    1410;  1250.2242;           37   
    1411;  1251.0995;           14   
    1412;  1251.9747;           31   
    1413;  1252.8500;           26   
    1414;  1253.7253;           27   
    1415;  1254.6006;           27   
    1416;  1255.4758;           28   
    1417;  1256.3511;           32   
    1418;  1257.2264;           28   
    1419;  1258.1017;           18   
    1420;  1258.9769;           23   
    1421;  1259.8522;           24   
    1422;  1260.7275;           32   
    1423;  1261.6028;           15   
    1424;  1262.4780;           28   
    1425;  1263.3533;           16   
    1426;  1264.2286;           27   
    1427;  1265.1039;           24   
    1428;  1265.9791;           26   
    1429;  1266.8544;           31   
    1430;  1267.7297;           30   
    1431;  1268.6050;           28   
    1432;  1269.4802;           19   
    1433;  1270.3555;           15   
    1434;  1271.2308;           22   
    1435;  1272.1061;           20   
    1436;  1272.9813;           24   
    1437;  1273.8566;           13   
    1438;  1274.7319;           27   
    1439;  1275.6072;           16   
    1440;  1276.4824;           19   
    1441;  1277.3577;           27   
    1442;  1278.2330;           26   
    1443;  1279.1083;           22   
    1444;  1279.9835;           28   
    1445;  1280.8588;           24   
    1446;  1281.7341;           35   
    1447;  1282.6094;          145   
    1448;  1283.4846;          676   
    1449;  1284.3599;         1979   
    1450;  1285.2352;         3483   
    1451;  1286.1105;         2912   
    1452;  1286.9857;         1198   
    1453;  1287.8610;          266   
    1454;  1288.7363;           67   
    1455;  1289.6116;           28   
    1456;  1290.4868;           27   
    1457;  1291.3621;           21   
    1458;  1292.2374;           34   
    1459;  1293.1127;           37   
    1460;  1293.9879;           25   
    1461;  1294.8632;           27   
    1462;  1295.7385;           24   
    1463;  1296.6138;           22   
    1464;  1297.4890;           23   
    1465;  1298.3643;           20   
    1466;  1299.2396;           22   
    1467;  1300.1149;           22   
    1468;  1300.9901;           30   
    1469;  1301.8654;           19   
    1470;  1302.7407;           20   
    1471;  1303.6160;           27   
    1472;  1304.4912;           18   
    1473;  1305.3665;           25   
    1474;  1306.2418;           18   
    1475;  1307.1171;           26   
    1476;  1307.9923;           25   
    1477;  1308.8676;           19   
    1478;  1309.7429;           21   
    1479;  1310.6182;           25   
    1480;  1311.4934;           16   
    1481;  1312.3687;           18   
    1482;  1313.2440;           13   
    1483;  1314.1193;            8   
    1484;  1314.9945;           15   
    1485;  1315.8698;           20   
    1486;  1316.7451;           22   
    1487;  1317.6204;           20   
    1488;  1318.4956;           13   
    1489;  1319.3709;           17   
    1490;  1320.2462;           19   
    1491;  1321.1215;           24   
    1492;  1321.9967;           25   
    1493;  1322.8720;           23   
    1494;  1323.7473;           16   
    1495;  1324.6226;           18   
    1496;  1325.4978;           15   
    1497;  1326.3731;           19   
    1498;  1327.2484;           18   
    1499;  1328.1237;           15   
    1500;  1328.9989;           19   
    1501;  1329.8742;           15   
    1502;  1330.7495;           12   
    1503;  1331.6248;           17   
    1504;  1332.5000;           20   
    1505;  1333.3753;           15   
    1506;  1334.2506;           18   
    1507;  1335.1259;           25   
    1508;  1336.0011;           15   
    1509;  1336.8764;           20   
    1510;  1337.7517;           16   
    1511;  1338.6270;           24   
    1512;  1339.5022;           19   
    1513;  1340.3775;           15   
    1514;  1341.2528;           26   
    1515;  1342.1281;           12   
    1516;  1343.0033;           16   
    1517;  1343.8786;           15   
    1518;  1344.7539;           17   
    1519;  1345.6292;           19   
    1520;  1346.5044;           18   
    1521;  1347.3797;           20   
    1522;  1348.2550;           18   
    1523;  1349.1303;           13   
    1524;  1350.0055;           19   
    1525;  1350.8808;           14   
    1526;  1351.7561;           20   
    1527;  1352.6314;           19   
    1528;  1353.5066;            9   
    1529;  1354.3819;           16   
    1530;  1355.2572;           18   
    1531;  1356.1325;           15   
    1532;  1357.0077;           25   
    1533;  1357.8830;           21   
    1534;  1358.7583;           19   
    1535;  1359.6336;           12   
    1536;  1360.5088;           13   
    1537;  1361.3841;           18   
    1538;  1362.2594;           24   
    1539;  1363.1347;            7   
    1540;  1364.0099;           12   
    1541;  1364.8852;           20   
    1542;  1365.7605;           19   
    1543;  1366.6358;           17   
    1544;  1367.5110;           20   
    1545;  1368.3863;            9   
    1546;  1369.2616;           11   
    1547;  1370.1369;           14   
    1548;  1371.0121;           18   
    1549;  1371.8874;           15   
    1550;  1372.7627;           19   
    1551;  1373.6380;           13   
    1552;  1374.5132;           15   
    1553;  1375.3885;           15   
    1554;  1376.2638;           11   
    1555;  1377.1391;           14   
    1556;  1378.0143;           11   
    1557;  1378.8896;           13   
    1558;  1379.7649;           17   
    1559;  1380.6402;           22   
    1560;  1381.5154;           16   
    1561;  1382.3907;           20   
    1562;  1383.2660;           13   
    1563;  1384.1413;           28   
    1564;  1385.0165;            8   
    1565;  1385.8918;           16   
    1566;  1386.7671;           15   
    1567;  1387.6424;           13   
    1568;  1388.5176;           11   
    1569;  1389.3929;           20   
    1570;  1390.2682;           22   
    1571;  1391.1435;           15   
    1572;  1392.0187;           13   
    1573;  1392.8940;           13   
    1574;  1393.7693;           16   
    1575;  1394.6446;           12   
    1576;  1395.5198;           16   
    1577;  1396.3951;           17   
    1578;  1397.2704;           22   
    1579;  1398.1457;           10   
    1580;  1399.0209;           16   
    1581;  1399.8962;           12   
    1582;  1400.7715;           12   
    1583;  1401.6468;           19   
    1584;  1402.5220;           13   
    1585;  1403.3973;           14   
    1586;  1404.2726;           12   
    1587;  1405.1479;           19   
    1588;  1406.0231;           15   
    1589;  1406.8984;            8   
    1590;  1407.7737;           12   
    1591;  1408.6490;           10   
    1592;  1409.5242;           18   
    1593;  1410.3995;           14   
    1594;  1411.2748;           20   
    1595;  1412.1501;           12   
    1596;  1413.0253;           13   
    1597;  1413.9006;           18   
    1598;  1414.7759;           16   
    1599;  1415.6512;           16   
    1600;  1416.5264;           12   
    1601;  1417.4017;            8   
    1602;  1418.2770;           23   
    1603;  1419.1523;           12   
    1604;  1420.0275;           14   
    1605;  1420.9028;           14   
    1606;  1421.7781;           13   
    1607;  1422.6534;           19   
    1608;  1423.5286;           15   
    1609;  1424.4039;           13   
    1610;  1425.2792;            7   
    1611;  1426.1545;           13   
    1612;  1427.0297;           15   
    1613;  1427.9050;           11   
    1614;  1428.7803;           10   
    1615;  1429.6556;            9   
    1616;  1430.5308;           16   
    1617;  1431.4061;            6   
    1618;  1432.2814;            9   
    1619;  1433.1567;           16   
    1620;  1434.0319;            6   
    1621;  1434.9072;           14   
    1622;  1435.7825;           19   
    1623;  1436.6578;           19   
    1624;  1437.5330;           11   
    1625;  1438.4083;           15   
    1626;  1439.2836;           13   
    1627;  1440.1589;           12   
    1628;  1441.0341;           13   
    1629;  1441.9094;            7   
    1630;  1442.7847;           19   
    1631;  1443.6600;            8   
    1632;  1444.5352;           12   
    1633;  1445.4105;           19   
    1634;  1446.2858;           11   
    1635;  1447.1611;           14   
    1636;  1448.0363;           18   
    1637;  1448.9116;           11   
    1638;  1449.7869;            6   
    1639;  1450.6622;            7   
    1640;  1451.5374;           12   
    1641;  1452.4127;           10   
    1642;  1453.2880;            5   
    1643;  1454.1633;            6   
    1644;  1455.0385;           13   
    1645;  1455.9138;            5   
    1646;  1456.7891;           11   
    1647;  1457.6644;           10   
    1648;  1458.5396;           12   
    1649;  1459.4149;            9   
    1650;  1460.2902;            8   
    1651;  1461.1655;            7   
    1652;  1462.0407;           19   
    1653;  1462.9160;           12   
    1654;  1463.7913;           13   
    1655;  1464.6666;           18   
    1656;  1465.5418;            7   
    1657;  1466.4171;           17   
    1658;  1467.2924;           13   
    1659;  1468.1677;           12   
    1660;  1469.0429;            9   
    1661;  1469.9182;           28   
    1662;  1470.7935;           79   
    1663;  1471.6688;          219   
    1664;  1472.5440;          370   
    1665;  1473.4193;          319   
    1666;  1474.2946;          154   
    1667;  1475.1699;           43   
    1668;  1476.0451;           21   
    1669;  1476.9204;           10   
    1670;  1477.7957;           13   
    1671;  1478.6710;           11   
    1672;  1479.5462;           17   
    1673;  1480.4215;           13   
    1674;  1481.2968;           10   
    1675;  1482.1721;           10   
    1676;  1483.0473;           13   
    1677;  1483.9226;            7   
    1678;  1484.7979;            8   
    1679;  1485.6732;           13   
    1680;  1486.5484;            9   
    1681;  1487.4237;           13   
    1682;  1488.2990;           18   
    1683;  1489.1743;           15   
    1684;  1490.0495;            7   
    1685;  1490.9248;           16   
    1686;  1491.8001;           10   
    1687;  1492.6754;           14   
    1688;  1493.5506;           12   
    1689;  1494.4259;           18   
    1690;  1495.3012;            7   
    1691;  1496.1765;            7   
    1692;  1497.0517;           13   
    1693;  1497.9270;            6   
    1694;  1498.8023;           15   
    1695;  1499.6776;           11   
    1696;  1500.5528;            7   
    1697;  1501.4281;           10   
    1698;  1502.3034;           10   
    1699;  1503.1787;           14   
    1700;  1504.0539;           12   
    1701;  1504.9292;           15   
    1702;  1505.8045;            7   
    1703;  1506.6798;           11   
    1704;  1507.5550;           10   
    1705;  1508.4303;           14   
    1706;  1509.3056;           11   
    1707;  1510.1809;           16   
    1708;  1511.0561;           14   
    1709;  1511.9314;           10   
    1710;  1512.8067;           10   
    1711;  1513.6820;           20   
    1712;  1514.5572;            2   
    1713;  1515.4325;            9   
    1714;  1516.3078;           13   
    1715;  1517.1831;           14   
    1716;  1518.0583;           17   
    1717;  1518.9336;            9   
    1718;  1519.8089;           14   
    1719;  1520.6842;           17   
    1720;  1521.5594;            8   
    1721;  1522.4347;            9   
    1722;  1523.3100;            8   
    1723;  1524.1853;            9   
    1724;  1525.0605;            6   
    1725;  1525.9358;           18   
    1726;  1526.8111;           13   
    1727;  1527.6864;           12   
    1728;  1528.5616;            6   
    1729;  1529.4369;            9   
    1730;  1530.3122;            6   
    1731;  1531.1875;            6   
    1732;  1532.0627;           13   
    1733;  1532.9380;           17   
    1734;  1533.8133;           12   
    1735;  1534.6886;           14   
    1736;  1535.5638;            8   
    1737;  1536.4391;           19   
    1738;  1537.3144;            9   
    1739;  1538.1897;           19   
    1740;  1539.0649;           12   
    1741;  1539.9402;           14   
    1742;  1540.8155;           10   
    1743;  1541.6908;           11   
    1744;  1542.5660;           12   
    1745;  1543.4413;           17   
    1746;  1544.3166;            9   
    1747;  1545.1919;           12   
    1748;  1546.0671;           15   
    1749;  1546.9424;            9   
    1750;  1547.8177;            8   
    1751;  1548.6930;           17   
    1752;  1549.5682;           11   
    1753;  1550.4435;            9   
    1754;  1551.3188;           10   
    1755;  1552.1941;           15   
    1756;  1553.0693;           13   
    1757;  1553.9446;           14   
    1758;  1554.8199;            5   
    1759;  1555.6952;            9   
    1760;  1556.5704;           12   
    1761;  1557.4457;           14   
    1762;  1558.3210;            9   
    1763;  1559.1963;           12   
    1764;  1560.0715;           11   
    1765;  1560.9468;           21   
    1766;  1561.8221;            6   
    1767;  1562.6974;            8   
    1768;  1563.5726;           11   
    1769;  1564.4479;           14   
    1770;  1565.3232;           13   
    1771;  1566.1985;            8   
    1772;  1567.0737;           12   
    1773;  1567.9490;           13   
    1774;  1568.8243;           10   
    1775;  1569.6996;            9   
    1776;  1570.5748;           11   
    1777;  1571.4501;           11   
    1778;  1572.3254;           15   
    1779;  1573.2007;           12   
    1780;  1574.0759;           12   
    1781;  1574.9512;           11   
    1782;  1575.8265;           15   
    1783;  1576.7018;           12   
    1784;  1577.5770;           12   
    1785;  1578.4523;           11   
    1786;  1579.3276;            7   
    1787;  1580.2029;           10   
    1788;  1581.0781;            7   
    1789;  1581.9534;            7   
    1790;  1582.8287;           14   
    1791;  1583.7040;           11   
    1792;  1584.5792;           11   
    1793;  1585.4545;            7   
    1794;  1586.3298;           15   
    1795;  1587.2051;           10   
    1796;  1588.0803;           13   
    1797;  1588.9556;            6   
    1798;  1589.8309;            9   
    1799;  1590.7062;           10   
    1800;  1591.5814;           11   
    1801;  1592.4567;            9   
    1802;  1593.3320;           11   
    1803;  1594.2073;           10   
    1804;  1595.0825;           11   
    1805;  1595.9578;            6   
    1806;  1596.8331;           12   
    1807;  1597.7084;           15   
    1808;  1598.5836;           10   
    1809;  1599.4589;           13   
    1810;  1600.3342;           12   
    1811;  1601.2095;           13   
    1812;  1602.0847;           14   
    1813;  1602.9600;           14   
    1814;  1603.8353;           20   
    1815;  1604.7106;           12   
    1816;  1605.5858;           12   
    1817;  1606.4611;           16   
    1818;  1607.3364;            7   
    1819;  1608.2117;           10   
    1820;  1609.0869;           12   
    1821;  1609.9622;            8   
    1822;  1610.8375;            7   
    1823;  1611.7128;           13   
    1824;  1612.5880;            9   
    1825;  1613.4633;           10   
    1826;  1614.3386;            6   
    1827;  1615.2139;           10   
    1828;  1616.0891;           13   
    1829;  1616.9644;            9   
    1830;  1617.8397;            9   
    1831;  1618.7150;            3   
    1832;  1619.5902;           13   
    1833;  1620.4655;            8   
    1834;  1621.3408;            9   
    1835;  1622.2161;           11   
    1836;  1623.0913;           10   
    1837;  1623.9666;           12   
    1838;  1624.8419;            8   
    1839;  1625.7172;            9   
    1840;  1626.5924;            9   
    1841;  1627.4677;            9   
    1842;  1628.3430;            8   
    1843;  1629.2183;            4   
    1844;  1630.0935;            9   
    1845;  1630.9688;            5   
    1846;  1631.8441;            8   
    1847;  1632.7194;           11   
    1848;  1633.5946;            9   
    1849;  1634.4699;            6   
    1850;  1635.3452;            3   
    1851;  1636.2205;            7   
    1852;  1637.0957;            7   
    1853;  1637.9710;            6   
    1854;  1638.8463;            6   
    1855;  1639.7216;            3   
    1856;  1640.5968;            1   
    1857;  1641.4721;            4   
    1858;  1642.3474;            6   
    1859;  1643.2227;           10   
    1860;  1644.0979;            4   
    1861;  1644.9732;           10   
    1862;  1645.8485;            1   
    1863;  1646.7238;            6   
    1864;  1647.5990;           10   
    1865;  1648.4743;            7   
    1866;  1649.3496;            3   
    1867;  1650.2249;            5   
    1868;  1651.1001;           10   
    1869;  1651.9754;           10   
    1870;  1652.8507;            5   
    1871;  1653.7260;            2   
    1872;  1654.6012;            4   
    1873;  1655.4765;            5   
    1874;  1656.3518;            5   
    1875;  1657.2271;            5   
    1876;  1658.1023;            4   
    1877;  1658.9776;            5   
    1878;  1659.8529;            2   
    1879;  1660.7282;            6   
    1880;  1661.6034;            5   
    1881;  1662.4787;            6   
    1882;  1663.3540;            3   
    1883;  1664.2293;            6   
    1884;  1665.1045;            5   
    1885;  1665.9798;            6   
    1886;  1666.8551;            5   
    1887;  1667.7304;            1   
    1888;  1668.6056;            3   
    1889;  1669.4809;            4   
    1890;  1670.3562;            5   
    1891;  1671.2315;            4   
    1892;  1672.1067;            2   
    1893;  1672.9820;            9   
    1894;  1673.8573;            3   
    1895;  1674.7326;            7   
    1896;  1675.6078;            3   
    1897;  1676.4831;            5   
    1898;  1677.3584;            2   
    1899;  1678.2337;            3   
    1900;  1679.1089;            3   
    1901;  1679.9842;            6   
    1902;  1680.8595;            4   
    1903;  1681.7348;            5   
    1904;  1682.6100;            4   
    1905;  1683.4853;            3   
    1906;  1684.3606;            4   
    1907;  1685.2359;            4   
    1908;  1686.1111;            4   
    1909;  1686.9864;            4   
    1910;  1687.8617;            6   
    1911;  1688.7370;            6   
    1912;  1689.6122;            4   
    1913;  1690.4875;            4   
    1914;  1691.3628;            7   
    1915;  1692.2381;            1   
    1916;  1693.1133;            4   
    1917;  1693.9886;            5   
    1918;  1694.8639;            2   
    1919;  1695.7392;            3   
    1920;  1696.6144;            2   
    1921;  1697.4897;            5   
    1922;  1698.3650;            5   
    1923;  1699.2403;            7   
    1924;  1700.1155;            5   
    1925;  1700.9908;            1   
    1926;  1701.8661;            3   
    1927;  1702.7414;            1   
    1928;  1703.6166;            1   
    1929;  1704.4919;            4   
    1930;  1705.3672;            7   
    1931;  1706.2425;            3   
    1932;  1707.1177;            2   
    1933;  1707.9930;            3   
    1934;  1708.8683;            2   
    1935;  1709.7436;            4   
    1936;  1710.6188;            5   
    1937;  1711.4941;            4   
    1938;  1712.3694;            5   
    1939;  1713.2447;            6   
    1940;  1714.1199;            4   
    1941;  1714.9952;            3   
    1942;  1715.8705;            3   
    1943;  1716.7458;            1   
    1944;  1717.6210;            6   
    1945;  1718.4963;            4   
    1946;  1719.3716;            3   
    1947;  1720.2469;            3   
    1948;  1721.1221;            4   
    1949;  1721.9974;            3   
    1950;  1722.8727;            3   
    1951;  1723.7480;            2   
    1952;  1724.6232;            2   
    1953;  1725.4985;            3   
    1954;  1726.3738;            3   
    1955;  1727.2491;            3   
    1956;  1728.1243;            3   
    1957;  1728.9996;            0   
    1958;  1729.8749;            3   
    1959;  1730.7502;            3   
    1960;  1731.6254;            5   
    1961;  1732.5007;            2   
    1962;  1733.3760;            3   
    1963;  1734.2513;            3   
    1964;  1735.1265;            4   
    1965;  1736.0018;            2   
    1966;  1736.8771;            4   
    1967;  1737.7524;            5   
    1968;  1738.6276;            1   
    1969;  1739.5029;            2   
    1970;  1740.3782;            4   
    1971;  1741.2535;            8   
    1972;  1742.1287;            6   
    1973;  1743.0040;            3   
    1974;  1743.8793;            7   
    1975;  1744.7546;            4   
    1976;  1745.6298;            2   
    1977;  1746.5051;            2   
    1978;  1747.3804;            1   
    1979;  1748.2557;            2   
    1980;  1749.1309;            0   
    1981;  1750.0062;            0   
    1982;  1750.8815;            0   
    1983;  1751.7568;            0   
    1984;  1752.6320;            0   
    1985;  1753.5073;            0   
    1986;  1754.3826;            0   
    1987;  1755.2579;            0   
    1988;  1756.1331;            0   
    1989;  1757.0084;            0   
    1990;  1757.8837;            0   
    1991;  1758.7590;            0   
    1992;  1759.6342;            0   
    1993;  1760.5095;            0   
    1994;  1761.3848;            0   
    1995;  1762.2601;            0   
    1996;  1763.1353;            0   
    1997;  1764.0106;            0   
    1998;  1764.8859;            0   
    1999;  1765.7612;            0   
    2000;  1766.6364;            0   
    2001;  1767.5117;            0   
    2002;  1768.3870;            0   
    2003;  1769.2623;            0   
    2004;  1770.1375;            0   
    2005;  1771.0128;            0   
    2006;  1771.8881;            0   
    2007;  1772.7634;            0   
    2008;  1773.6386;            0   
    2009;  1774.5139;            0   
    2010;  1775.3892;            0   
    2011;  1776.2645;            0   
    2012;  1777.1397;            0   
    2013;  1778.0150;            0   
    2014;  1778.8903;            0   
    2015;  1779.7656;            0   
    2016;  1780.6408;            0   
    2017;  1781.5161;            0   
    2018;  1782.3914;            0   
    2019;  1783.2667;            0   
    2020;  1784.1419;            0   
    2021;  1785.0172;            0   
    2022;  1785.8925;            0   
    2023;  1786.7678;            0   
    2024;  1787.6430;            0   
    2025;  1788.5183;            0   
    2026;  1789.3936;            0   
    2027;  1790.2689;            0   
    2028;  1791.1441;            0   
    2029;  1792.0194;            0   
    2030;  1792.8947;            0   
    2031;  1793.7700;            0   
    2032;  1794.6452;            0   
    2033;  1795.5205;            0   
    2034;  1796.3958;            0   
    2035;  1797.2711;            0   
    2036;  1798.1463;            0   
    2037;  1799.0216;            0   
    2038;  1799.8969;            0   
    2039;  1800.7722;            0   
    2040;  1801.6474;            0   
    2041;  1802.5227;            0   
    2042;  1803.3980;            0   
    2043;  1804.2733;            0   
    2044;  1805.1485;            0   
    2045;  1806.0238;            0   
    2046;  1806.8991;            0   
    2047;  1807.7744;            0   
    2048;  1808.6496;            0   
ROI Nummer; Anfangskanal; Endkanal; Anfangsenergie keV ; Endenergie keV; Nettoimpulse; Bruttoimpulse; Untergrundimpulse
In den Daten wurden keine Linien gefunden
ROI Nummer; prozentualer Fehler der Lage; Lage keV; FWHM keV; FWTM keV; FWTM/FWHM Verhltnis; H/L Verhltnis
No Peak records found in data.
Name; Energie keV; Flags; Aktivitt uCi/Unit; Aktivittsfehler %; NWG uCi/Unit; MDA Error %
Es wurden keine Nuklidergebnisse gefunden.
Name; Erwartete Endergie keV; Gemessene Energie keV; Differenz von erwarteter keV; FWHM; Flags; Aktivitt uCi/Unit; Aktivittsfehler %
Es wurden keine Nuklidergebnisse gefunden.
