Kanal;   Energie(keV); Impulse
       1;    16.9617;          826   
       2;    17.8370;          817   
       3;    18.7122;          945   
       4;    19.5875;          888   
       5;    20.4628;         1001   
       6;    21.3381;         1016   
       7;    22.2133;         1191   
       8;    23.0886;         1214   
       9;    23.9639;         1325   
      10;    24.8392;         1493   
      11;    25.7144;         1531   
      12;    26.5897;         1745   
      13;    27.4650;         1935   
      14;    28.3403;         2023   
      15;    29.2155;         2163   
      16;    30.0908;         2309   
      17;    30.9661;         2340   
      18;    31.8414;         2158   
      19;    32.7166;         2262   
      20;    33.5919;         2206   
      21;    34.4672;         2261   
      22;    35.3425;         2184   
      23;    36.2177;         2071   
      24;    37.0930;         2089   
      25;    37.9683;         1964   
      26;    38.8436;         2047   
      27;    39.7188;         2091   
      28;    40.5941;         1873   
      29;    41.4694;         1843   
      30;    42.3447;         1866   
      31;    43.2199;         1860   
      32;    44.0952;         1844   
      33;    44.9705;         1840   
      34;    45.8458;         1868   
      35;    46.7210;         1784   
      36;    47.5963;         1934   
      37;    48.4716;         1756   
      38;    49.3469;         1686   
      39;    50.2221;         1693   
      40;    51.0974;         1641   
      41;    51.9727;         1693   
      42;    52.8480;         1634   
      43;    53.7232;         1665   
      44;    54.5985;         1522   
      45;    55.4738;         1615   
      46;    56.3491;         1516   
      47;    57.2243;         1478   
      48;    58.0996;         1521   
      49;    58.9749;         1419   
      50;    59.8502;         1383   
      51;    60.7254;         1393   
      52;    61.6007;         1346   
      53;    62.4760;         1404   
      54;    63.3513;         1319   
      55;    64.2265;         1327   
      56;    65.1018;         1300   
      57;    65.9771;         1191   
      58;    66.8524;         1224   
      59;    67.7276;         1172   
      60;    68.6029;         1201   
      61;    69.4782;         1185   
      62;    70.3535;         1188   
      63;    71.2287;         1142   
      64;    72.1040;         1189   
      65;    72.9793;         1129   
      66;    73.8546;         1158   
      67;    74.7298;         1070   
      68;    75.6051;         1080   
      69;    76.4804;         1072   
      70;    77.3557;         1039   
      71;    78.2309;         1044   
      72;    79.1062;         1064   
      73;    79.9815;          953   
      74;    80.8568;          957   
      75;    81.7320;          920   
      76;    82.6073;          881   
      77;    83.4826;          964   
      78;    84.3579;          916   
      79;    85.2331;          866   
      80;    86.1084;          936   
      81;    86.9837;          928   
      82;    87.8590;          873   
      83;    88.7342;          918   
      84;    89.6095;          891   
      85;    90.4848;          892   
      86;    91.3601;          857   
      87;    92.2353;          852   
      88;    93.1106;          839   
      89;    93.9859;          790   
      90;    94.8612;          785   
      91;    95.7364;          761   
      92;    96.6117;          740   
      93;    97.4870;          682   
      94;    98.3623;          740   
      95;    99.2375;          657   
      96;   100.1128;          659   
      97;   100.9881;          618   
      98;   101.8634;          595   
      99;   102.7386;          602   
     100;   103.6139;          615   
     101;   104.4892;          592   
     102;   105.3645;          597   
     103;   106.2397;          539   
     104;   107.1150;          607   
     105;   107.9903;          554   
     106;   108.8656;          536   
     107;   109.7408;          504   
     108;   110.6161;          550   
     109;   111.4914;          517   
     110;   112.3667;          516   
     111;   113.2419;          502   
     112;   114.1172;          479   
     113;   114.9925;          465   
     114;   115.8678;          479   
     115;   116.7430;          491   
     116;   117.6183;          455   
     117;   118.4936;          436   
     118;   119.3689;          472   
     119;   120.2441;          472   
     120;   121.1194;          440   
     121;   121.9947;          453   
     122;   122.8700;          435   
     123;   123.7452;          386   
     124;   124.6205;          419   
     125;   125.4958;          428   
     126;   126.3711;          406   
     127;   127.2463;          387   
     128;   128.1216;          376   
     129;   128.9969;          377   
     130;   129.8722;          411   
     131;   130.7474;          427   
     132;   131.6227;          398   
     133;   132.4980;          379   
     134;   133.3733;          402   
     135;   134.2485;          327   
     136;   135.1238;          346   
     137;   135.9991;          365   
     138;   136.8744;          345   
     139;   137.7496;          328   
     140;   138.6249;          321   
     141;   139.5002;          309   
     142;   140.3755;          341   
     143;   141.2507;          323   
     144;   142.1260;          289   
     145;   143.0013;          292   
     146;   143.8766;          276   
     147;   144.7518;          269   
     148;   145.6271;          284   
     149;   146.5024;          257   
     150;   147.3777;          290   
     151;   148.2529;          279   
     152;   149.1282;          278   
     153;   150.0035;          280   
     154;   150.8788;          244   
     155;   151.7540;          247   
     156;   152.6293;          285   
     157;   153.5046;          229   
     158;   154.3799;          221   
     159;   155.2551;          230   
     160;   156.1304;          229   
     161;   157.0057;          208   
     162;   157.8810;          225   
     163;   158.7562;          228   
     164;   159.6315;          230   
     165;   160.5068;          237   
     166;   161.3821;          223   
     167;   162.2573;          210   
     168;   163.1326;          201   
     169;   164.0079;          214   
     170;   164.8832;          203   
     171;   165.7584;          206   
     172;   166.6337;          210   
     173;   167.5090;          199   
     174;   168.3843;          216   
     175;   169.2595;          186   
     176;   170.1348;          194   
     177;   171.0101;          204   
     178;   171.8854;          213   
     179;   172.7606;          193   
     180;   173.6359;          222   
     181;   174.5112;          237   
     182;   175.3865;          189   
     183;   176.2617;          224   
     184;   177.1370;          194   
     185;   178.0123;          211   
     186;   178.8876;          207   
     187;   179.7628;          196   
     188;   180.6381;          198   
     189;   181.5134;          191   
     190;   182.3887;          173   
     191;   183.2639;          178   
     192;   184.1392;          211   
     193;   185.0145;          179   
     194;   185.8898;          187   
     195;   186.7650;          200   
     196;   187.6403;          211   
     197;   188.5156;          190   
     198;   189.3909;          183   
     199;   190.2661;          205   
     200;   191.1414;          192   
     201;   192.0167;          181   
     202;   192.8920;          214   
     203;   193.7672;          172   
     204;   194.6425;          188   
     205;   195.5178;          184   
     206;   196.3931;          170   
     207;   197.2683;          167   
     208;   198.1436;          177   
     209;   199.0189;          163   
     210;   199.8942;          161   
     211;   200.7694;          169   
     212;   201.6447;          200   
     213;   202.5200;          163   
     214;   203.3953;          166   
     215;   204.2705;          189   
     216;   205.1458;          144   
     217;   206.0211;          165   
     218;   206.8964;          152   
     219;   207.7716;          170   
     220;   208.6469;          161   
     221;   209.5222;          143   
     222;   210.3975;          140   
     223;   211.2727;          146   
     224;   212.1480;          129   
     225;   213.0233;          165   
     226;   213.8986;          165   
     227;   214.7738;          141   
     228;   215.6491;          141   
     229;   216.5244;          147   
     230;   217.3997;          162   
     231;   218.2749;          151   
     232;   219.1502;          153   
     233;   220.0255;          149   
     234;   220.9008;          159   
     235;   221.7760;          153   
     236;   222.6513;          158   
     237;   223.5266;          143   
     238;   224.4019;          163   
     239;   225.2771;          138   
     240;   226.1524;          132   
     241;   227.0277;          130   
     242;   227.9030;          145   
     243;   228.7782;           99   
     244;   229.6535;          115   
     245;   230.5288;          132   
     246;   231.4041;          100   
     247;   232.2793;          102   
     248;   233.1546;          105   
     249;   234.0299;          110   
     250;   234.9052;          125   
     251;   235.7804;           95   
     252;   236.6557;          108   
     253;   237.5310;           81   
     254;   238.4063;           89   
     255;   239.2815;          108   
     256;   240.1568;           88   
     257;   241.0321;           96   
     258;   241.9074;           96   
     259;   242.7826;           78   
     260;   243.6579;           84   
     261;   244.5332;           75   
     262;   245.4085;           84   
     263;   246.2837;           77   
     264;   247.1590;           74   
     265;   248.0343;           81   
     266;   248.9096;           78   
     267;   249.7848;           64   
     268;   250.6601;           63   
     269;   251.5354;           69   
     270;   252.4107;           88   
     271;   253.2859;           63   
     272;   254.1612;           63   
     273;   255.0365;           57   
     274;   255.9118;           89   
     275;   256.7870;           53   
     276;   257.6623;           62   
     277;   258.5376;           76   
     278;   259.4129;           67   
     279;   260.2881;           72   
     280;   261.1634;           66   
     281;   262.0387;           73   
     282;   262.9140;           47   
     283;   263.7892;           55   
     284;   264.6645;           70   
     285;   265.5398;           66   
     286;   266.4151;           70   
     287;   267.2903;           60   
     288;   268.1656;           61   
     289;   269.0409;           80   
     290;   269.9162;           69   
     291;   270.7914;           70   
     292;   271.6667;           50   
     293;   272.5420;           55   
     294;   273.4173;           68   
     295;   274.2925;           71   
     296;   275.1678;           67   
     297;   276.0431;           79   
     298;   276.9184;           65   
     299;   277.7936;           75   
     300;   278.6689;           64   
     301;   279.5442;           64   
     302;   280.4195;           69   
     303;   281.2947;           64   
     304;   282.1700;           63   
     305;   283.0453;           50   
     306;   283.9206;           58   
     307;   284.7958;           63   
     308;   285.6711;           77   
     309;   286.5464;           61   
     310;   287.4217;           64   
     311;   288.2969;           46   
     312;   289.1722;           53   
     313;   290.0475;           41   
     314;   290.9228;           42   
     315;   291.7980;           39   
     316;   292.6733;           73   
     317;   293.5486;           61   
     318;   294.4239;           49   
     319;   295.2991;           45   
     320;   296.1744;           56   
     321;   297.0497;           58   
     322;   297.9250;           62   
     323;   298.8002;           58   
     324;   299.6755;           62   
     325;   300.5508;           50   
     326;   301.4261;           63   
     327;   302.3013;           55   
     328;   303.1766;           61   
     329;   304.0519;           51   
     330;   304.9272;           57   
     331;   305.8024;           48   
     332;   306.6777;           56   
     333;   307.5530;           39   
     334;   308.4283;           42   
     335;   309.3035;           59   
     336;   310.1788;           47   
     337;   311.0541;           48   
     338;   311.9294;           52   
     339;   312.8046;           47   
     340;   313.6799;           45   
     341;   314.5552;           44   
     342;   315.4305;           39   
     343;   316.3057;           53   
     344;   317.1810;           50   
     345;   318.0563;           50   
     346;   318.9316;           47   
     347;   319.8068;           49   
     348;   320.6821;           41   
     349;   321.5574;           47   
     350;   322.4327;           49   
     351;   323.3079;           62   
     352;   324.1832;           38   
     353;   325.0585;           49   
     354;   325.9338;           47   
     355;   326.8090;           41   
     356;   327.6843;           50   
     357;   328.5596;           45   
     358;   329.4349;           41   
     359;   330.3101;           45   
     360;   331.1854;           40   
     361;   332.0607;           50   
     362;   332.9360;           46   
     363;   333.8112;           42   
     364;   334.6865;           37   
     365;   335.5618;           37   
     366;   336.4371;           35   
     367;   337.3123;           40   
     368;   338.1876;           46   
     369;   339.0629;           40   
     370;   339.9382;           39   
     371;   340.8134;           39   
     372;   341.6887;           50   
     373;   342.5640;           41   
     374;   343.4393;           40   
     375;   344.3145;           32   
     376;   345.1898;           37   
     377;   346.0651;           42   
     378;   346.9404;           48   
     379;   347.8156;           45   
     380;   348.6909;           34   
     381;   349.5662;           33   
     382;   350.4415;           32   
     383;   351.3167;           41   
     384;   352.1920;           32   
     385;   353.0673;           34   
     386;   353.9426;           33   
     387;   354.8178;           33   
     388;   355.6931;           32   
     389;   356.5684;           39   
     390;   357.4437;           31   
     391;   358.3189;           38   
     392;   359.1942;           38   
     393;   360.0695;           41   
     394;   360.9448;           38   
     395;   361.8200;           44   
     396;   362.6953;           47   
     397;   363.5706;           56   
     398;   364.4459;           30   
     399;   365.3211;           33   
     400;   366.1964;           40   
     401;   367.0717;           41   
     402;   367.9470;           33   
     403;   368.8222;           47   
     404;   369.6975;           39   
     405;   370.5728;           29   
     406;   371.4481;           45   
     407;   372.3233;           34   
     408;   373.1986;           47   
     409;   374.0739;           45   
     410;   374.9492;           23   
     411;   375.8244;           43   
     412;   376.6997;           46   
     413;   377.5750;           34   
     414;   378.4503;           38   
     415;   379.3255;           35   
     416;   380.2008;           37   
     417;   381.0761;           44   
     418;   381.9514;           42   
     419;   382.8266;           31   
     420;   383.7019;           52   
     421;   384.5772;           37   
     422;   385.4525;           49   
     423;   386.3277;           28   
     424;   387.2030;           38   
     425;   388.0783;           37   
     426;   388.9536;           33   
     427;   389.8288;           48   
     428;   390.7041;           38   
     429;   391.5794;           36   
     430;   392.4547;           28   
     431;   393.3299;           47   
     432;   394.2052;           45   
     433;   395.0805;           45   
     434;   395.9558;           38   
     435;   396.8310;           26   
     436;   397.7063;           46   
     437;   398.5816;           33   
     438;   399.4569;           46   
     439;   400.3321;           32   
     440;   401.2074;           54   
     441;   402.0827;           38   
     442;   402.9580;           37   
     443;   403.8332;           28   
     444;   404.7085;           26   
     445;   405.5838;           35   
     446;   406.4591;           32   
     447;   407.3343;           48   
     448;   408.2096;           28   
     449;   409.0849;           33   
     450;   409.9602;           50   
     451;   410.8354;           39   
     452;   411.7107;           34   
     453;   412.5860;           40   
     454;   413.4613;           45   
     455;   414.3365;           32   
     456;   415.2118;           30   
     457;   416.0871;           28   
     458;   416.9624;           34   
     459;   417.8376;           32   
     460;   418.7129;           30   
     461;   419.5882;           24   
     462;   420.4635;           36   
     463;   421.3387;           37   
     464;   422.2140;           30   
     465;   423.0893;           32   
     466;   423.9646;           30   
     467;   424.8398;           40   
     468;   425.7151;           27   
     469;   426.5904;           34   
     470;   427.4657;           42   
     471;   428.3409;           27   
     472;   429.2162;           30   
     473;   430.0915;           39   
     474;   430.9668;           31   
     475;   431.8420;           27   
     476;   432.7173;           37   
     477;   433.5926;           36   
     478;   434.4679;           30   
     479;   435.3431;           43   
     480;   436.2184;           41   
     481;   437.0937;           40   
     482;   437.9690;           22   
     483;   438.8442;           31   
     484;   439.7195;           31   
     485;   440.5948;           24   
     486;   441.4701;           35   
     487;   442.3453;           31   
     488;   443.2206;           30   
     489;   444.0959;           30   
     490;   444.9712;           31   
     491;   445.8464;           24   
     492;   446.7217;           31   
     493;   447.5970;           27   
     494;   448.4723;           25   
     495;   449.3475;           26   
     496;   450.2228;           30   
     497;   451.0981;           42   
     498;   451.9734;           29   
     499;   452.8486;           44   
     500;   453.7239;           26   
     501;   454.5992;           26   
     502;   455.4745;           28   
     503;   456.3497;           32   
     504;   457.2250;           28   
     505;   458.1003;           21   
     506;   458.9756;           35   
     507;   459.8508;           26   
     508;   460.7261;           33   
     509;   461.6014;           20   
     510;   462.4767;           23   
     511;   463.3519;           28   
     512;   464.2272;           46   
     513;   465.1025;           33   
     514;   465.9778;           24   
     515;   466.8530;           28   
     516;   467.7283;           35   
     517;   468.6036;           42   
     518;   469.4789;           25   
     519;   470.3541;           27   
     520;   471.2294;           30   
     521;   472.1047;           23   
     522;   472.9800;           28   
     523;   473.8552;           28   
     524;   474.7305;           24   
     525;   475.6058;           28   
     526;   476.4811;           21   
     527;   477.3563;           23   
     528;   478.2316;           27   
     529;   479.1069;           32   
     530;   479.9822;           24   
     531;   480.8574;           27   
     532;   481.7327;           29   
     533;   482.6080;           32   
     534;   483.4833;           19   
     535;   484.3585;           27   
     536;   485.2338;           27   
     537;   486.1091;           21   
     538;   486.9844;           17   
     539;   487.8596;           19   
     540;   488.7349;           32   
     541;   489.6102;           30   
     542;   490.4855;           11   
     543;   491.3607;           26   
     544;   492.2360;           24   
     545;   493.1113;           23   
     546;   493.9866;           30   
     547;   494.8618;           24   
     548;   495.7371;           28   
     549;   496.6124;           33   
     550;   497.4877;           25   
     551;   498.3629;           27   
     552;   499.2382;           31   
     553;   500.1135;           29   
     554;   500.9888;           30   
     555;   501.8640;           39   
     556;   502.7393;           27   
     557;   503.6146;           28   
     558;   504.4899;           27   
     559;   505.3651;           22   
     560;   506.2404;           18   
     561;   507.1157;           22   
     562;   507.9910;           27   
     563;   508.8662;           20   
     564;   509.7415;           37   
     565;   510.6168;           25   
     566;   511.4921;           17   
     567;   512.3673;           25   
     568;   513.2426;           21   
     569;   514.1179;           24   
     570;   514.9932;           21   
     571;   515.8684;           26   
     572;   516.7437;           25   
     573;   517.6190;           20   
     574;   518.4943;           28   
     575;   519.3695;           32   
     576;   520.2448;           32   
     577;   521.1201;           36   
     578;   521.9954;           23   
     579;   522.8706;           32   
     580;   523.7459;           21   
     581;   524.6212;           32   
     582;   525.4965;           31   
     583;   526.3717;           33   
     584;   527.2470;           28   
     585;   528.1223;           23   
     586;   528.9976;           29   
     587;   529.8728;           40   
     588;   530.7481;           31   
     589;   531.6234;           32   
     590;   532.4987;           20   
     591;   533.3739;           26   
     592;   534.2492;           32   
     593;   535.1245;           24   
     594;   535.9998;           24   
     595;   536.8750;           32   
     596;   537.7503;           27   
     597;   538.6256;           24   
     598;   539.5009;           26   
     599;   540.3761;           30   
     600;   541.2514;           32   
     601;   542.1267;           21   
     602;   543.0020;           23   
     603;   543.8772;           30   
     604;   544.7525;           25   
     605;   545.6278;           19   
     606;   546.5031;           22   
     607;   547.3783;           21   
     608;   548.2536;           16   
     609;   549.1289;           26   
     610;   550.0042;           28   
     611;   550.8794;           13   
     612;   551.7547;           22   
     613;   552.6300;           33   
     614;   553.5053;           21   
     615;   554.3805;           20   
     616;   555.2558;           28   
     617;   556.1311;           22   
     618;   557.0064;           18   
     619;   557.8816;           25   
     620;   558.7569;           20   
     621;   559.6322;           21   
     622;   560.5075;           26   
     623;   561.3827;           27   
     624;   562.2580;           21   
     625;   563.1333;           20   
     626;   564.0086;           19   
     627;   564.8838;           21   
     628;   565.7591;           28   
     629;   566.6344;           19   
     630;   567.5097;           26   
     631;   568.3849;           26   
     632;   569.2602;           28   
     633;   570.1355;           15   
     634;   571.0108;           27   
     635;   571.8860;           24   
     636;   572.7613;           26   
     637;   573.6366;           16   
     638;   574.5119;           22   
     639;   575.3871;           21   
     640;   576.2624;           26   
     641;   577.1377;           26   
     642;   578.0130;           21   
     643;   578.8882;           18   
     644;   579.7635;           19   
     645;   580.6388;           20   
     646;   581.5141;           14   
     647;   582.3893;           15   
     648;   583.2646;           25   
     649;   584.1399;           23   
     650;   585.0152;           14   
     651;   585.8904;           24   
     652;   586.7657;           16   
     653;   587.6410;           12   
     654;   588.5163;           25   
     655;   589.3915;           16   
     656;   590.2668;           15   
     657;   591.1421;           13   
     658;   592.0174;           19   
     659;   592.8926;           18   
     660;   593.7679;           12   
     661;   594.6432;           27   
     662;   595.5185;           20   
     663;   596.3937;           16   
     664;   597.2690;           15   
     665;   598.1443;           33   
     666;   599.0196;           12   
     667;   599.8948;           22   
     668;   600.7701;           16   
     669;   601.6454;           21   
     670;   602.5207;           19   
     671;   603.3959;           12   
     672;   604.2712;           23   
     673;   605.1465;           18   
     674;   606.0218;           17   
     675;   606.8970;           27   
     676;   607.7723;           16   
     677;   608.6476;           16   
     678;   609.5229;           18   
     679;   610.3981;           27   
     680;   611.2734;           15   
     681;   612.1487;           16   
     682;   613.0240;           16   
     683;   613.8992;           19   
     684;   614.7745;           21   
     685;   615.6498;           13   
     686;   616.5251;           17   
     687;   617.4003;           18   
     688;   618.2756;           18   
     689;   619.1509;           15   
     690;   620.0262;            9   
     691;   620.9014;           17   
     692;   621.7767;           15   
     693;   622.6520;           10   
     694;   623.5273;           15   
     695;   624.4025;           14   
     696;   625.2778;           14   
     697;   626.1531;           19   
     698;   627.0284;           13   
     699;   627.9036;           16   
     700;   628.7789;           11   
     701;   629.6542;           15   
     702;   630.5295;           15   
     703;   631.4047;           12   
     704;   632.2800;           16   
     705;   633.1553;           26   
     706;   634.0306;           13   
     707;   634.9058;           20   
     708;   635.7811;            5   
     709;   636.6564;           14   
     710;   637.5317;           12   
     711;   638.4069;           16   
     712;   639.2822;           16   
     713;   640.1575;           11   
     714;   641.0328;           12   
     715;   641.9080;           10   
     716;   642.7833;           14   
     717;   643.6586;            9   
     718;   644.5339;           13   
     719;   645.4091;           10   
     720;   646.2844;           17   
     721;   647.1597;           13   
     722;   648.0350;           14   
     723;   648.9102;           15   
     724;   649.7855;           17   
     725;   650.6608;           16   
     726;   651.5361;           12   
     727;   652.4113;           13   
     728;   653.2866;           13   
     729;   654.1619;            9   
     730;   655.0372;           17   
     731;   655.9124;           11   
     732;   656.7877;           18   
     733;   657.6630;           10   
     734;   658.5383;           10   
     735;   659.4135;           12   
     736;   660.2888;           12   
     737;   661.1641;            9   
     738;   662.0394;            8   
     739;   662.9146;           13   
     740;   663.7899;           12   
     741;   664.6652;            8   
     742;   665.5405;            8   
     743;   666.4157;           11   
     744;   667.2910;           15   
     745;   668.1663;            6   
     746;   669.0416;           19   
     747;   669.9168;           13   
     748;   670.7921;            8   
     749;   671.6674;           15   
     750;   672.5427;           15   
     751;   673.4179;           11   
     752;   674.2932;            8   
     753;   675.1685;           10   
     754;   676.0438;           17   
     755;   676.9190;           10   
     756;   677.7943;           16   
     757;   678.6696;           10   
     758;   679.5449;           17   
     759;   680.4201;           15   
     760;   681.2954;            9   
     761;   682.1707;            8   
     762;   683.0460;           13   
     763;   683.9212;           13   
     764;   684.7965;            9   
     765;   685.6718;            9   
     766;   686.5471;           14   
     767;   687.4223;            8   
     768;   688.2976;           13   
     769;   689.1729;           13   
     770;   690.0482;           10   
     771;   690.9234;            9   
     772;   691.7987;           12   
     773;   692.6740;           12   
     774;   693.5493;           21   
     775;   694.4245;           13   
     776;   695.2998;           18   
     777;   696.1751;           13   
     778;   697.0504;           18   
     779;   697.9256;           11   
     780;   698.8009;           22   
     781;   699.6762;           11   
     782;   700.5515;           21   
     783;   701.4267;           12   
     784;   702.3020;           14   
     785;   703.1773;           12   
     786;   704.0526;            6   
     787;   704.9278;           11   
     788;   705.8031;           13   
     789;   706.6784;            4   
     790;   707.5537;           14   
     791;   708.4289;           22   
     792;   709.3042;           13   
     793;   710.1795;           14   
     794;   711.0548;           10   
     795;   711.9300;           19   
     796;   712.8053;           24   
     797;   713.6806;           16   
     798;   714.5559;           20   
     799;   715.4311;           15   
     800;   716.3064;           19   
     801;   717.1817;           21   
     802;   718.0570;           22   
     803;   718.9322;           17   
     804;   719.8075;           11   
     805;   720.6828;           16   
     806;   721.5581;           24   
     807;   722.4333;           17   
     808;   723.3086;           19   
     809;   724.1839;           16   
     810;   725.0592;           24   
     811;   725.9344;            9   
     812;   726.8097;           31   
     813;   727.6850;           16   
     814;   728.5603;           21   
     815;   729.4355;           21   
     816;   730.3108;           25   
     817;   731.1861;           24   
     818;   732.0614;           26   
     819;   732.9366;           27   
     820;   733.8119;           25   
     821;   734.6872;           25   
     822;   735.5625;           30   
     823;   736.4377;           32   
     824;   737.3130;           21   
     825;   738.1883;           28   
     826;   739.0636;           31   
     827;   739.9388;           31   
     828;   740.8141;           27   
     829;   741.6894;           28   
     830;   742.5647;           38   
     831;   743.4399;           32   
     832;   744.3152;           33   
     833;   745.1905;           33   
     834;   746.0658;           26   
     835;   746.9410;           29   
     836;   747.8163;           24   
     837;   748.6916;           34   
     838;   749.5669;           25   
     839;   750.4421;           37   
     840;   751.3174;           48   
     841;   752.1927;           30   
     842;   753.0680;           38   
     843;   753.9432;           40   
     844;   754.8185;           44   
     845;   755.6938;           35   
     846;   756.5691;           32   
     847;   757.4443;           31   
     848;   758.3196;           39   
     849;   759.1949;           38   
     850;   760.0702;           45   
     851;   760.9454;           45   
     852;   761.8207;           41   
     853;   762.6960;           44   
     854;   763.5713;           47   
     855;   764.4465;           38   
     856;   765.3218;           30   
     857;   766.1971;           49   
     858;   767.0724;           47   
     859;   767.9476;           39   
     860;   768.8229;           35   
     861;   769.6982;           23   
     862;   770.5735;           35   
     863;   771.4487;           44   
     864;   772.3240;           50   
     865;   773.1993;           50   
     866;   774.0746;           38   
     867;   774.9498;           38   
     868;   775.8251;           28   
     869;   776.7004;           44   
     870;   777.5757;           45   
     871;   778.4509;           38   
     872;   779.3262;           39   
     873;   780.2015;           39   
     874;   781.0768;           34   
     875;   781.9520;           38   
     876;   782.8273;           32   
     877;   783.7026;           35   
     878;   784.5779;           28   
     879;   785.4531;           26   
     880;   786.3284;           38   
     881;   787.2037;           25   
     882;   788.0790;           40   
     883;   788.9542;           28   
     884;   789.8295;           24   
     885;   790.7048;           34   
     886;   791.5801;           29   
     887;   792.4553;           25   
     888;   793.3306;           33   
     889;   794.2059;           22   
     890;   795.0812;           34   
     891;   795.9564;           19   
     892;   796.8317;           28   
     893;   797.7070;           19   
     894;   798.5823;           26   
     895;   799.4575;           14   
     896;   800.3328;           28   
     897;   801.2081;           15   
     898;   802.0834;           22   
     899;   802.9586;           19   
     900;   803.8339;           26   
     901;   804.7092;           20   
     902;   805.5845;           11   
     903;   806.4597;           13   
     904;   807.3350;           13   
     905;   808.2103;           15   
     906;   809.0856;           11   
     907;   809.9608;           16   
     908;   810.8361;           17   
     909;   811.7114;           17   
     910;   812.5867;            9   
     911;   813.4619;           13   
     912;   814.3372;           12   
     913;   815.2125;           15   
     914;   816.0878;           16   
     915;   816.9631;           10   
     916;   817.8383;           12   
     917;   818.7136;           12   
     918;   819.5889;           11   
     919;   820.4642;           14   
     920;   821.3394;            7   
     921;   822.2147;           14   
     922;   823.0900;           14   
     923;   823.9653;           11   
     924;   824.8405;           10   
     925;   825.7158;           11   
     926;   826.5911;           12   
     927;   827.4664;            6   
     928;   828.3416;            3   
     929;   829.2169;            4   
     930;   830.0922;            4   
     931;   830.9675;            8   
     932;   831.8427;            9   
     933;   832.7180;            7   
     934;   833.5933;           13   
     935;   834.4686;            4   
     936;   835.3438;            3   
     937;   836.2191;            6   
     938;   837.0944;            5   
     939;   837.9697;            6   
     940;   838.8449;            8   
     941;   839.7202;            5   
     942;   840.5955;            7   
     943;   841.4708;            4   
     944;   842.3460;            3   
     945;   843.2213;            4   
     946;   844.0966;           11   
     947;   844.9719;            5   
     948;   845.8471;            2   
     949;   846.7224;            6   
     950;   847.5977;            6   
     951;   848.4730;            5   
     952;   849.3482;            3   
     953;   850.2235;            5   
     954;   851.0988;            4   
     955;   851.9741;            4   
     956;   852.8493;            4   
     957;   853.7246;            2   
     958;   854.5999;            5   
     959;   855.4752;            2   
     960;   856.3504;            5   
     961;   857.2257;            4   
     962;   858.1010;            2   
     963;   858.9763;            7   
     964;   859.8515;            4   
     965;   860.7268;            8   
     966;   861.6021;            3   
     967;   862.4774;            2   
     968;   863.3526;            5   
     969;   864.2279;            0   
     970;   865.1032;            4   
     971;   865.9785;            5   
     972;   866.8537;            4   
     973;   867.7290;           12   
     974;   868.6043;            7   
     975;   869.4796;            6   
     976;   870.3548;            9   
     977;   871.2301;            2   
     978;   872.1054;            5   
     979;   872.9807;            2   
     980;   873.8559;            3   
     981;   874.7312;            1   
     982;   875.6065;            6   
     983;   876.4818;            9   
     984;   877.3570;            4   
     985;   878.2323;            3   
     986;   879.1076;            2   
     987;   879.9829;            5   
     988;   880.8581;            1   
     989;   881.7334;            1   
     990;   882.6087;            7   
     991;   883.4840;            3   
     992;   884.3592;            6   
     993;   885.2345;            4   
     994;   886.1098;            3   
     995;   886.9851;            5   
     996;   887.8603;            3   
     997;   888.7356;            4   
     998;   889.6109;            4   
     999;   890.4862;            6   
    1000;   891.3614;            4   
    1001;   892.2367;            5   
    1002;   893.1120;            5   
    1003;   893.9873;            7   
    1004;   894.8625;            2   
    1005;   895.7378;            1   
    1006;   896.6131;            4   
    1007;   897.4884;            3   
    1008;   898.3636;            4   
    1009;   899.2389;            4   
    1010;   900.1142;            5   
    1011;   900.9895;            3   
    1012;   901.8647;            4   
    1013;   902.7400;            3   
    1014;   903.6153;            5   
    1015;   904.4906;            4   
    1016;   905.3658;            2   
    1017;   906.2411;            2   
    1018;   907.1164;            4   
    1019;   907.9917;            6   
    1020;   908.8669;            4   
    1021;   909.7422;            3   
    1022;   910.6175;            2   
    1023;   911.4928;            4   
    1024;   912.3680;            3   
    1025;   913.2433;            4   
    1026;   914.1186;            4   
    1027;   914.9939;            6   
    1028;   915.8691;            1   
    1029;   916.7444;            0   
    1030;   917.6197;            4   
    1031;   918.4950;            7   
    1032;   919.3702;            5   
    1033;   920.2455;            4   
    1034;   921.1208;            1   
    1035;   921.9961;            0   
    1036;   922.8713;            7   
    1037;   923.7466;            2   
    1038;   924.6219;            2   
    1039;   925.4972;            1   
    1040;   926.3724;            5   
    1041;   927.2477;            2   
    1042;   928.1230;            2   
    1043;   928.9983;            1   
    1044;   929.8735;            4   
    1045;   930.7488;            4   
    1046;   931.6241;            4   
    1047;   932.4994;            4   
    1048;   933.3746;            3   
    1049;   934.2499;            3   
    1050;   935.1252;            4   
    1051;   936.0005;            5   
    1052;   936.8757;            5   
    1053;   937.7510;            3   
    1054;   938.6263;            4   
    1055;   939.5016;            4   
    1056;   940.3768;            4   
    1057;   941.2521;            3   
    1058;   942.1274;            1   
    1059;   943.0027;            8   
    1060;   943.8779;            6   
    1061;   944.7532;            5   
    1062;   945.6285;            3   
    1063;   946.5038;            4   
    1064;   947.3790;            3   
    1065;   948.2543;            4   
    1066;   949.1296;            7   
    1067;   950.0049;            5   
    1068;   950.8801;            7   
    1069;   951.7554;            1   
    1070;   952.6307;            5   
    1071;   953.5060;            3   
    1072;   954.3812;            6   
    1073;   955.2565;            3   
    1074;   956.1318;            3   
    1075;   957.0071;            8   
    1076;   957.8823;            4   
    1077;   958.7576;            2   
    1078;   959.6329;            5   
    1079;   960.5082;            8   
    1080;   961.3834;            4   
    1081;   962.2587;            7   
    1082;   963.1340;            2   
    1083;   964.0093;            4   
    1084;   964.8845;            3   
    1085;   965.7598;            4   
    1086;   966.6351;            6   
    1087;   967.5104;            2   
    1088;   968.3856;            2   
    1089;   969.2609;            1   
    1090;   970.1362;            4   
    1091;   971.0115;            5   
    1092;   971.8867;            4   
    1093;   972.7620;            4   
    1094;   973.6373;            6   
    1095;   974.5126;            4   
    1096;   975.3878;            4   
    1097;   976.2631;            1   
    1098;   977.1384;            1   
    1099;   978.0137;            4   
    1100;   978.8889;            3   
    1101;   979.7642;            5   
    1102;   980.6395;            4   
    1103;   981.5148;            4   
    1104;   982.3900;            6   
    1105;   983.2653;            4   
    1106;   984.1406;            3   
    1107;   985.0159;            8   
    1108;   985.8911;            3   
    1109;   986.7664;            2   
    1110;   987.6417;            3   
    1111;   988.5170;            3   
    1112;   989.3922;            4   
    1113;   990.2675;            4   
    1114;   991.1428;            2   
    1115;   992.0181;            1   
    1116;   992.8933;            3   
    1117;   993.7686;            3   
    1118;   994.6439;            5   
    1119;   995.5192;            4   
    1120;   996.3944;            7   
    1121;   997.2697;            4   
    1122;   998.1450;            2   
    1123;   999.0203;            7   
    1124;   999.8955;            4   
    1125;  1000.7708;            7   
    1126;  1001.6461;            3   
    1127;  1002.5214;            4   
    1128;  1003.3966;            4   
    1129;  1004.2719;            1   
    1130;  1005.1472;            4   
    1131;  1006.0225;            4   
    1132;  1006.8977;            7   
    1133;  1007.7730;            4   
    1134;  1008.6483;            6   
    1135;  1009.5236;            2   
    1136;  1010.3988;            2   
    1137;  1011.2741;            4   
    1138;  1012.1494;            6   
    1139;  1013.0247;            4   
    1140;  1013.8999;            5   
    1141;  1014.7752;            4   
    1142;  1015.6505;            3   
    1143;  1016.5258;            3   
    1144;  1017.4010;            6   
    1145;  1018.2763;            6   
    1146;  1019.1516;            0   
    1147;  1020.0269;            2   
    1148;  1020.9021;            7   
    1149;  1021.7774;            5   
    1150;  1022.6527;            1   
    1151;  1023.5280;            6   
    1152;  1024.4032;            3   
    1153;  1025.2785;            2   
    1154;  1026.1538;            0   
    1155;  1027.0291;            4   
    1156;  1027.9043;            7   
    1157;  1028.7796;            3   
    1158;  1029.6549;            5   
    1159;  1030.5302;            3   
    1160;  1031.4054;            0   
    1161;  1032.2807;            2   
    1162;  1033.1560;            4   
    1163;  1034.0313;            2   
    1164;  1034.9065;            4   
    1165;  1035.7818;            4   
    1166;  1036.6571;            2   
    1167;  1037.5324;            3   
    1168;  1038.4076;            2   
    1169;  1039.2829;            1   
    1170;  1040.1582;            2   
    1171;  1041.0335;            3   
    1172;  1041.9087;            4   
    1173;  1042.7840;            1   
    1174;  1043.6593;            4   
    1175;  1044.5346;            2   
    1176;  1045.4098;            2   
    1177;  1046.2851;            3   
    1178;  1047.1604;            2   
    1179;  1048.0357;            3   
    1180;  1048.9109;            2   
    1181;  1049.7862;            3   
    1182;  1050.6615;            3   
    1183;  1051.5368;            1   
    1184;  1052.4120;            2   
    1185;  1053.2873;            4   
    1186;  1054.1626;            4   
    1187;  1055.0379;            1   
    1188;  1055.9131;            4   
    1189;  1056.7884;            5   
    1190;  1057.6637;            5   
    1191;  1058.5390;            1   
    1192;  1059.4142;            1   
    1193;  1060.2895;            0   
    1194;  1061.1648;            3   
    1195;  1062.0401;            1   
    1196;  1062.9153;            1   
    1197;  1063.7906;            3   
    1198;  1064.6659;            2   
    1199;  1065.5412;            1   
    1200;  1066.4164;            2   
    1201;  1067.2917;            1   
    1202;  1068.1670;            1   
    1203;  1069.0423;            5   
    1204;  1069.9175;            2   
    1205;  1070.7928;            1   
    1206;  1071.6681;            2   
    1207;  1072.5434;            2   
    1208;  1073.4186;            2   
    1209;  1074.2939;            1   
    1210;  1075.1692;            5   
    1211;  1076.0445;            2   
    1212;  1076.9197;            0   
    1213;  1077.7950;            1   
    1214;  1078.6703;            3   
    1215;  1079.5456;            6   
    1216;  1080.4208;            0   
    1217;  1081.2961;            4   
    1218;  1082.1714;            0   
    1219;  1083.0467;            7   
    1220;  1083.9219;            5   
    1221;  1084.7972;            6   
    1222;  1085.6725;            4   
    1223;  1086.5478;            0   
    1224;  1087.4230;            3   
    1225;  1088.2983;            1   
    1226;  1089.1736;            2   
    1227;  1090.0489;            3   
    1228;  1090.9241;            6   
    1229;  1091.7994;            2   
    1230;  1092.6747;            1   
    1231;  1093.5500;            2   
    1232;  1094.4252;            3   
    1233;  1095.3005;            2   
    1234;  1096.1758;            7   
    1235;  1097.0511;            2   
    1236;  1097.9263;            5   
    1237;  1098.8016;            5   
    1238;  1099.6769;            3   
    1239;  1100.5522;            4   
    1240;  1101.4274;            1   
    1241;  1102.3027;            1   
    1242;  1103.1780;            1   
    1243;  1104.0533;            4   
    1244;  1104.9285;            4   
    1245;  1105.8038;            3   
    1246;  1106.6791;            1   
    1247;  1107.5544;            1   
    1248;  1108.4296;            3   
    1249;  1109.3049;            1   
    1250;  1110.1802;            5   
    1251;  1111.0555;            2   
    1252;  1111.9307;            4   
    1253;  1112.8060;            5   
    1254;  1113.6813;            1   
    1255;  1114.5566;            2   
    1256;  1115.4318;            3   
    1257;  1116.3071;            1   
    1258;  1117.1824;            3   
    1259;  1118.0577;            2   
    1260;  1118.9329;            4   
    1261;  1119.8082;            1   
    1262;  1120.6835;            3   
    1263;  1121.5588;            4   
    1264;  1122.4340;            3   
    1265;  1123.3093;            0   
    1266;  1124.1846;            3   
    1267;  1125.0599;            1   
    1268;  1125.9351;            2   
    1269;  1126.8104;            0   
    1270;  1127.6857;            2   
    1271;  1128.5610;            3   
    1272;  1129.4362;            0   
    1273;  1130.3115;            2   
    1274;  1131.1868;            1   
    1275;  1132.0621;            1   
    1276;  1132.9373;            2   
    1277;  1133.8126;            2   
    1278;  1134.6879;            1   
    1279;  1135.5632;            2   
    1280;  1136.4384;            2   
    1281;  1137.3137;            3   
    1282;  1138.1890;            3   
    1283;  1139.0643;            2   
    1284;  1139.9395;            3   
    1285;  1140.8148;            0   
    1286;  1141.6901;            4   
    1287;  1142.5654;            0   
    1288;  1143.4406;            4   
    1289;  1144.3159;            0   
    1290;  1145.1912;            2   
    1291;  1146.0665;            4   
    1292;  1146.9417;            1   
    1293;  1147.8170;            7   
    1294;  1148.6923;            3   
    1295;  1149.5676;            0   
    1296;  1150.4428;            4   
    1297;  1151.3181;            1   
    1298;  1152.1934;            0   
    1299;  1153.0687;            3   
    1300;  1153.9439;            2   
    1301;  1154.8192;            0   
    1302;  1155.6945;            6   
    1303;  1156.5698;            3   
    1304;  1157.4450;            2   
    1305;  1158.3203;            0   
    1306;  1159.1956;            1   
    1307;  1160.0709;            1   
    1308;  1160.9461;            2   
    1309;  1161.8214;            2   
    1310;  1162.6967;            2   
    1311;  1163.5720;            0   
    1312;  1164.4472;            0   
    1313;  1165.3225;            3   
    1314;  1166.1978;            3   
    1315;  1167.0731;            0   
    1316;  1167.9483;            3   
    1317;  1168.8236;            2   
    1318;  1169.6989;            4   
    1319;  1170.5742;            2   
    1320;  1171.4494;            0   
    1321;  1172.3247;            2   
    1322;  1173.2000;            1   
    1323;  1174.0753;            2   
    1324;  1174.9505;            1   
    1325;  1175.8258;            1   
    1326;  1176.7011;            2   
    1327;  1177.5764;            1   
    1328;  1178.4516;            5   
    1329;  1179.3269;            2   
    1330;  1180.2022;            2   
    1331;  1181.0775;            1   
    1332;  1181.9527;            3   
    1333;  1182.8280;            1   
    1334;  1183.7033;            1   
    1335;  1184.5786;            2   
    1336;  1185.4538;            0   
    1337;  1186.3291;            3   
    1338;  1187.2044;            1   
    1339;  1188.0797;            0   
    1340;  1188.9549;            1   
    1341;  1189.8302;            1   
    1342;  1190.7055;            2   
    1343;  1191.5808;            0   
    1344;  1192.4560;            3   
    1345;  1193.3313;            1   
    1346;  1194.2066;            2   
    1347;  1195.0819;            1   
    1348;  1195.9571;            3   
    1349;  1196.8324;            1   
    1350;  1197.7077;            2   
    1351;  1198.5830;            1   
    1352;  1199.4582;            2   
    1353;  1200.3335;            3   
    1354;  1201.2088;            3   
    1355;  1202.0841;            0   
    1356;  1202.9593;            3   
    1357;  1203.8346;            3   
    1358;  1204.7099;            1   
    1359;  1205.5852;            5   
    1360;  1206.4604;            5   
    1361;  1207.3357;            1   
    1362;  1208.2110;            8   
    1363;  1209.0863;            1   
    1364;  1209.9615;            4   
    1365;  1210.8368;            4   
    1366;  1211.7121;            7   
    1367;  1212.5874;            1   
    1368;  1213.4626;            1   
    1369;  1214.3379;            5   
    1370;  1215.2132;            2   
    1371;  1216.0885;            2   
    1372;  1216.9637;            3   
    1373;  1217.8390;            2   
    1374;  1218.7143;            3   
    1375;  1219.5896;            3   
    1376;  1220.4648;            2   
    1377;  1221.3401;            3   
    1378;  1222.2154;            4   
    1379;  1223.0907;            1   
    1380;  1223.9659;            4   
    1381;  1224.8412;            5   
    1382;  1225.7165;            4   
    1383;  1226.5918;            3   
    1384;  1227.4670;            2   
    1385;  1228.3423;            6   
    1386;  1229.2176;            3   
    1387;  1230.0929;            2   
    1388;  1230.9681;            4   
    1389;  1231.8434;            0   
    1390;  1232.7187;            1   
    1391;  1233.5940;            3   
    1392;  1234.4692;            2   
    1393;  1235.3445;            4   
    1394;  1236.2198;            3   
    1395;  1237.0951;            4   
    1396;  1237.9703;            4   
    1397;  1238.8456;            2   
    1398;  1239.7209;            1   
    1399;  1240.5962;            2   
    1400;  1241.4714;            3   
    1401;  1242.3467;            3   
    1402;  1243.2220;            2   
    1403;  1244.0973;            4   
    1404;  1244.9725;            4   
    1405;  1245.8478;            4   
    1406;  1246.7231;            2   
    1407;  1247.5984;            1   
    1408;  1248.4736;            1   
    1409;  1249.3489;            4   
    1410;  1250.2242;            4   
    1411;  1251.0995;            2   
    1412;  1251.9747;            4   
    1413;  1252.8500;            5   
    1414;  1253.7253;            2   
    1415;  1254.6006;            1   
    1416;  1255.4758;            1   
    1417;  1256.3511;            1   
    1418;  1257.2264;            1   
    1419;  1258.1017;            1   
    1420;  1258.9769;            4   
    1421;  1259.8522;            3   
    1422;  1260.7275;            0   
    1423;  1261.6028;            0   
    1424;  1262.4780;            3   
    1425;  1263.3533;            3   
    1426;  1264.2286;            1   
    1427;  1265.1039;            0   
    1428;  1265.9791;            1   
    1429;  1266.8544;            3   
    1430;  1267.7297;            4   
    1431;  1268.6050;            4   
    1432;  1269.4802;            3   
    1433;  1270.3555;            3   
    1434;  1271.2308;            2   
    1435;  1272.1061;            2   
    1436;  1272.9813;            1   
    1437;  1273.8566;            3   
    1438;  1274.7319;            1   
    1439;  1275.6072;            2   
    1440;  1276.4824;            0   
    1441;  1277.3577;            3   
    1442;  1278.2330;            1   
    1443;  1279.1083;            2   
    1444;  1279.9835;            4   
    1445;  1280.8588;            2   
    1446;  1281.7341;            2   
    1447;  1282.6094;            4   
    1448;  1283.4846;            7   
    1449;  1284.3599;            4   
    1450;  1285.2352;            2   
    1451;  1286.1105;            2   
    1452;  1286.9857;            5   
    1453;  1287.8610;            3   
    1454;  1288.7363;            2   
    1455;  1289.6116;            3   
    1456;  1290.4868;            1   
    1457;  1291.3621;            3   
    1458;  1292.2374;            2   
    1459;  1293.1127;            1   
    1460;  1293.9879;            1   
    1461;  1294.8632;            3   
    1462;  1295.7385;            1   
    1463;  1296.6138;            3   
    1464;  1297.4890;            3   
    1465;  1298.3643;            1   
    1466;  1299.2396;            1   
    1467;  1300.1149;            4   
    1468;  1300.9901;            1   
    1469;  1301.8654;            2   
    1470;  1302.7407;            5   
    1471;  1303.6160;            3   
    1472;  1304.4912;            7   
    1473;  1305.3665;            2   
    1474;  1306.2418;            2   
    1475;  1307.1171;            2   
    1476;  1307.9923;            0   
    1477;  1308.8676;            5   
    1478;  1309.7429;            0   
    1479;  1310.6182;            2   
    1480;  1311.4934;            4   
    1481;  1312.3687;            6   
    1482;  1313.2440;            2   
    1483;  1314.1193;            2   
    1484;  1314.9945;            2   
    1485;  1315.8698;            3   
    1486;  1316.7451;            2   
    1487;  1317.6204;            4   
    1488;  1318.4956;            1   
    1489;  1319.3709;            4   
    1490;  1320.2462;            3   
    1491;  1321.1215;            1   
    1492;  1321.9967;            4   
    1493;  1322.8720;            5   
    1494;  1323.7473;            2   
    1495;  1324.6226;            3   
    1496;  1325.4978;            2   
    1497;  1326.3731;            2   
    1498;  1327.2484;            3   
    1499;  1328.1237;            1   
    1500;  1328.9989;            1   
    1501;  1329.8742;            0   
    1502;  1330.7495;            1   
    1503;  1331.6248;            3   
    1504;  1332.5000;            2   
    1505;  1333.3753;            3   
    1506;  1334.2506;            2   
    1507;  1335.1259;            2   
    1508;  1336.0011;            1   
    1509;  1336.8764;            3   
    1510;  1337.7517;            3   
    1511;  1338.6270;            0   
    1512;  1339.5022;            1   
    1513;  1340.3775;            3   
    1514;  1341.2528;            2   
    1515;  1342.1281;            1   
    1516;  1343.0033;            1   
    1517;  1343.8786;            4   
    1518;  1344.7539;            4   
    1519;  1345.6292;            1   
    1520;  1346.5044;            2   
    1521;  1347.3797;            1   
    1522;  1348.2550;            2   
    1523;  1349.1303;            2   
    1524;  1350.0055;            2   
    1525;  1350.8808;            0   
    1526;  1351.7561;            1   
    1527;  1352.6314;            3   
    1528;  1353.5066;            1   
    1529;  1354.3819;            0   
    1530;  1355.2572;            1   
    1531;  1356.1325;            2   
    1532;  1357.0077;            2   
    1533;  1357.8830;            2   
    1534;  1358.7583;            0   
    1535;  1359.6336;            2   
    1536;  1360.5088;            1   
    1537;  1361.3841;            0   
    1538;  1362.2594;            0   
    1539;  1363.1347;            1   
    1540;  1364.0099;            0   
    1541;  1364.8852;            2   
    1542;  1365.7605;            3   
    1543;  1366.6358;            2   
    1544;  1367.5110;            5   
    1545;  1368.3863;            2   
    1546;  1369.2616;            1   
    1547;  1370.1369;            3   
    1548;  1371.0121;            0   
    1549;  1371.8874;            3   
    1550;  1372.7627;            1   
    1551;  1373.6380;            2   
    1552;  1374.5132;            1   
    1553;  1375.3885;            3   
    1554;  1376.2638;            2   
    1555;  1377.1391;            4   
    1556;  1378.0143;            1   
    1557;  1378.8896;            2   
    1558;  1379.7649;            2   
    1559;  1380.6402;            2   
    1560;  1381.5154;            1   
    1561;  1382.3907;            2   
    1562;  1383.2660;            4   
    1563;  1384.1413;            1   
    1564;  1385.0165;            0   
    1565;  1385.8918;            3   
    1566;  1386.7671;            3   
    1567;  1387.6424;            1   
    1568;  1388.5176;            3   
    1569;  1389.3929;            0   
    1570;  1390.2682;            0   
    1571;  1391.1435;            3   
    1572;  1392.0187;            3   
    1573;  1392.8940;            1   
    1574;  1393.7693;            4   
    1575;  1394.6446;            4   
    1576;  1395.5198;            3   
    1577;  1396.3951;            2   
    1578;  1397.2704;            2   
    1579;  1398.1457;            1   
    1580;  1399.0209;            2   
    1581;  1399.8962;            3   
    1582;  1400.7715;            3   
    1583;  1401.6468;            1   
    1584;  1402.5220;            0   
    1585;  1403.3973;            0   
    1586;  1404.2726;            1   
    1587;  1405.1479;            0   
    1588;  1406.0231;            1   
    1589;  1406.8984;            2   
    1590;  1407.7737;            1   
    1591;  1408.6490;            1   
    1592;  1409.5242;            1   
    1593;  1410.3995;            1   
    1594;  1411.2748;            0   
    1595;  1412.1501;            1   
    1596;  1413.0253;            1   
    1597;  1413.9006;            1   
    1598;  1414.7759;            2   
    1599;  1415.6512;            1   
    1600;  1416.5264;            1   
    1601;  1417.4017;            3   
    1602;  1418.2770;            3   
    1603;  1419.1523;            0   
    1604;  1420.0275;            1   
    1605;  1420.9028;            0   
    1606;  1421.7781;            2   
    1607;  1422.6534;            0   
    1608;  1423.5286;            2   
    1609;  1424.4039;            4   
    1610;  1425.2792;            1   
    1611;  1426.1545;            3   
    1612;  1427.0297;            0   
    1613;  1427.9050;            0   
    1614;  1428.7803;            2   
    1615;  1429.6556;            0   
    1616;  1430.5308;            0   
    1617;  1431.4061;            2   
    1618;  1432.2814;            2   
    1619;  1433.1567;            2   
    1620;  1434.0319;            0   
    1621;  1434.9072;            2   
    1622;  1435.7825;            1   
    1623;  1436.6578;            4   
    1624;  1437.5330;            0   
    1625;  1438.4083;            1   
    1626;  1439.2836;            0   
    1627;  1440.1589;            2   
    1628;  1441.0341;            3   
    1629;  1441.9094;            0   
    1630;  1442.7847;            0   
    1631;  1443.6600;            0   
    1632;  1444.5352;            1   
    1633;  1445.4105;            0   
    1634;  1446.2858;            1   
    1635;  1447.1611;            0   
    1636;  1448.0363;            1   
    1637;  1448.9116;            2   
    1638;  1449.7869;            3   
    1639;  1450.6622;            0   
    1640;  1451.5374;            1   
    1641;  1452.4127;            0   
    1642;  1453.2880;            1   
    1643;  1454.1633;            2   
    1644;  1455.0385;            1   
    1645;  1455.9138;            0   
    1646;  1456.7891;            1   
    1647;  1457.6644;            1   
    1648;  1458.5396;            3   
    1649;  1459.4149;            0   
    1650;  1460.2902;            0   
    1651;  1461.1655;            1   
    1652;  1462.0407;            1   
    1653;  1462.9160;            1   
    1654;  1463.7913;            0   
    1655;  1464.6666;            1   
    1656;  1465.5418;            1   
    1657;  1466.4171;            1   
    1658;  1467.2924;            1   
    1659;  1468.1677;            0   
    1660;  1469.0429;            0   
    1661;  1469.9182;            2   
    1662;  1470.7935;            0   
    1663;  1471.6688;            0   
    1664;  1472.5440;            1   
    1665;  1473.4193;            0   
    1666;  1474.2946;            4   
    1667;  1475.1699;            4   
    1668;  1476.0451;            3   
    1669;  1476.9204;            2   
    1670;  1477.7957;            1   
    1671;  1478.6710;            1   
    1672;  1479.5462;            3   
    1673;  1480.4215;            0   
    1674;  1481.2968;            1   
    1675;  1482.1721;            0   
    1676;  1483.0473;            0   
    1677;  1483.9226;            0   
    1678;  1484.7979;            1   
    1679;  1485.6732;            0   
    1680;  1486.5484;            1   
    1681;  1487.4237;            2   
    1682;  1488.2990;            1   
    1683;  1489.1743;            2   
    1684;  1490.0495;            1   
    1685;  1490.9248;            1   
    1686;  1491.8001;            0   
    1687;  1492.6754;            0   
    1688;  1493.5506;            1   
    1689;  1494.4259;            2   
    1690;  1495.3012;            1   
    1691;  1496.1765;            2   
    1692;  1497.0517;            0   
    1693;  1497.9270;            2   
    1694;  1498.8023;            2   
    1695;  1499.6776;            0   
    1696;  1500.5528;            0   
    1697;  1501.4281;            0   
    1698;  1502.3034;            3   
    1699;  1503.1787;            2   
    1700;  1504.0539;            2   
    1701;  1504.9292;            1   
    1702;  1505.8045;            3   
    1703;  1506.6798;            0   
    1704;  1507.5550;            3   
    1705;  1508.4303;            0   
    1706;  1509.3056;            0   
    1707;  1510.1809;            2   
    1708;  1511.0561;            2   
    1709;  1511.9314;            1   
    1710;  1512.8067;            0   
    1711;  1513.6820;            0   
    1712;  1514.5572;            0   
    1713;  1515.4325;            0   
    1714;  1516.3078;            2   
    1715;  1517.1831;            0   
    1716;  1518.0583;            0   
    1717;  1518.9336;            0   
    1718;  1519.8089;            2   
    1719;  1520.6842;            4   
    1720;  1521.5594;            1   
    1721;  1522.4347;            1   
    1722;  1523.3100;            1   
    1723;  1524.1853;            1   
    1724;  1525.0605;            0   
    1725;  1525.9358;            2   
    1726;  1526.8111;            2   
    1727;  1527.6864;            0   
    1728;  1528.5616;            0   
    1729;  1529.4369;            0   
    1730;  1530.3122;            0   
    1731;  1531.1875;            4   
    1732;  1532.0627;            0   
    1733;  1532.9380;            4   
    1734;  1533.8133;            2   
    1735;  1534.6886;            1   
    1736;  1535.5638;            1   
    1737;  1536.4391;            2   
    1738;  1537.3144;            0   
    1739;  1538.1897;            3   
    1740;  1539.0649;            2   
    1741;  1539.9402;            1   
    1742;  1540.8155;            3   
    1743;  1541.6908;            0   
    1744;  1542.5660;            3   
    1745;  1543.4413;            3   
    1746;  1544.3166;            1   
    1747;  1545.1919;            2   
    1748;  1546.0671;            1   
    1749;  1546.9424;            1   
    1750;  1547.8177;            1   
    1751;  1548.6930;            0   
    1752;  1549.5682;            0   
    1753;  1550.4435;            4   
    1754;  1551.3188;            1   
    1755;  1552.1941;            2   
    1756;  1553.0693;            0   
    1757;  1553.9446;            1   
    1758;  1554.8199;            0   
    1759;  1555.6952;            3   
    1760;  1556.5704;            1   
    1761;  1557.4457;            2   
    1762;  1558.3210;            0   
    1763;  1559.1963;            3   
    1764;  1560.0715;            0   
    1765;  1560.9468;            1   
    1766;  1561.8221;            0   
    1767;  1562.6974;            5   
    1768;  1563.5726;            2   
    1769;  1564.4479;            6   
    1770;  1565.3232;            4   
    1771;  1566.1985;            1   
    1772;  1567.0737;            3   
    1773;  1567.9490;            1   
    1774;  1568.8243;            0   
    1775;  1569.6996;            2   
    1776;  1570.5748;            6   
    1777;  1571.4501;            1   
    1778;  1572.3254;            4   
    1779;  1573.2007;            4   
    1780;  1574.0759;            3   
    1781;  1574.9512;            1   
    1782;  1575.8265;            5   
    1783;  1576.7018;            0   
    1784;  1577.5770;            0   
    1785;  1578.4523;            2   
    1786;  1579.3276;            4   
    1787;  1580.2029;            1   
    1788;  1581.0781;            3   
    1789;  1581.9534;            2   
    1790;  1582.8287;            6   
    1791;  1583.7040;            1   
    1792;  1584.5792;            2   
    1793;  1585.4545;            3   
    1794;  1586.3298;            0   
    1795;  1587.2051;            1   
    1796;  1588.0803;            4   
    1797;  1588.9556;            1   
    1798;  1589.8309;            2   
    1799;  1590.7062;            2   
    1800;  1591.5814;            3   
    1801;  1592.4567;            3   
    1802;  1593.3320;            4   
    1803;  1594.2073;            2   
    1804;  1595.0825;            2   
    1805;  1595.9578;            6   
    1806;  1596.8331;            2   
    1807;  1597.7084;            6   
    1808;  1598.5836;            4   
    1809;  1599.4589;            4   
    1810;  1600.3342;            0   
    1811;  1601.2095;            1   
    1812;  1602.0847;            4   
    1813;  1602.9600;            2   
    1814;  1603.8353;            3   
    1815;  1604.7106;            3   
    1816;  1605.5858;            4   
    1817;  1606.4611;            3   
    1818;  1607.3364;            4   
    1819;  1608.2117;            3   
    1820;  1609.0869;            2   
    1821;  1609.9622;            1   
    1822;  1610.8375;            1   
    1823;  1611.7128;            1   
    1824;  1612.5880;            3   
    1825;  1613.4633;            1   
    1826;  1614.3386;            4   
    1827;  1615.2139;            5   
    1828;  1616.0891;            1   
    1829;  1616.9644;            1   
    1830;  1617.8397;            1   
    1831;  1618.7150;            1   
    1832;  1619.5902;            3   
    1833;  1620.4655;            1   
    1834;  1621.3408;            3   
    1835;  1622.2161;            4   
    1836;  1623.0913;            4   
    1837;  1623.9666;            3   
    1838;  1624.8419;            0   
    1839;  1625.7172;            6   
    1840;  1626.5924;            1   
    1841;  1627.4677;            0   
    1842;  1628.3430;            2   
    1843;  1629.2183;            1   
    1844;  1630.0935;            5   
    1845;  1630.9688;            2   
    1846;  1631.8441;            1   
    1847;  1632.7194;            1   
    1848;  1633.5946;            2   
    1849;  1634.4699;            2   
    1850;  1635.3452;            1   
    1851;  1636.2205;            3   
    1852;  1637.0957;            3   
    1853;  1637.9710;            3   
    1854;  1638.8463;            1   
    1855;  1639.7216;            2   
    1856;  1640.5968;            2   
    1857;  1641.4721;            3   
    1858;  1642.3474;            1   
    1859;  1643.2227;            1   
    1860;  1644.0979;            3   
    1861;  1644.9732;            1   
    1862;  1645.8485;            1   
    1863;  1646.7238;            3   
    1864;  1647.5990;            1   
    1865;  1648.4743;            3   
    1866;  1649.3496;            0   
    1867;  1650.2249;            1   
    1868;  1651.1001;            1   
    1869;  1651.9754;            0   
    1870;  1652.8507;            2   
    1871;  1653.7260;            1   
    1872;  1654.6012;            0   
    1873;  1655.4765;            2   
    1874;  1656.3518;            1   
    1875;  1657.2271;            1   
    1876;  1658.1023;            1   
    1877;  1658.9776;            3   
    1878;  1659.8529;            1   
    1879;  1660.7282;            0   
    1880;  1661.6034;            4   
    1881;  1662.4787;            0   
    1882;  1663.3540;            1   
    1883;  1664.2293;            0   
    1884;  1665.1045;            0   
    1885;  1665.9798;            0   
    1886;  1666.8551;            0   
    1887;  1667.7304;            0   
    1888;  1668.6056;            0   
    1889;  1669.4809;            2   
    1890;  1670.3562;            2   
    1891;  1671.2315;            0   
    1892;  1672.1067;            1   
    1893;  1672.9820;            0   
    1894;  1673.8573;            0   
    1895;  1674.7326;            0   
    1896;  1675.6078;            0   
    1897;  1676.4831;            1   
    1898;  1677.3584;            1   
    1899;  1678.2337;            1   
    1900;  1679.1089;            0   
    1901;  1679.9842;            0   
    1902;  1680.8595;            0   
    1903;  1681.7348;            1   
    1904;  1682.6100;            1   
    1905;  1683.4853;            0   
    1906;  1684.3606;            0   
    1907;  1685.2359;            1   
    1908;  1686.1111;            0   
    1909;  1686.9864;            2   
    1910;  1687.8617;            0   
    1911;  1688.7370;            0   
    1912;  1689.6122;            0   
    1913;  1690.4875;            0   
    1914;  1691.3628;            0   
    1915;  1692.2381;            0   
    1916;  1693.1133;            0   
    1917;  1693.9886;            0   
    1918;  1694.8639;            1   
    1919;  1695.7392;            0   
    1920;  1696.6144;            0   
    1921;  1697.4897;            0   
    1922;  1698.3650;            0   
    1923;  1699.2403;            1   
    1924;  1700.1155;            0   
    1925;  1700.9908;            0   
    1926;  1701.8661;            0   
    1927;  1702.7414;            0   
    1928;  1703.6166;            1   
    1929;  1704.4919;            1   
    1930;  1705.3672;            1   
    1931;  1706.2425;            0   
    1932;  1707.1177;            0   
    1933;  1707.9930;            0   
    1934;  1708.8683;            0   
    1935;  1709.7436;            1   
    1936;  1710.6188;            0   
    1937;  1711.4941;            0   
    1938;  1712.3694;            1   
    1939;  1713.2447;            0   
    1940;  1714.1199;            2   
    1941;  1714.9952;            0   
    1942;  1715.8705;            0   
    1943;  1716.7458;            1   
    1944;  1717.6210;            0   
    1945;  1718.4963;            0   
    1946;  1719.3716;            0   
    1947;  1720.2469;            0   
    1948;  1721.1221;            0   
    1949;  1721.9974;            0   
    1950;  1722.8727;            0   
    1951;  1723.7480;            0   
    1952;  1724.6232;            0   
    1953;  1725.4985;            0   
    1954;  1726.3738;            0   
    1955;  1727.2491;            0   
    1956;  1728.1243;            0   
    1957;  1728.9996;            0   
    1958;  1729.8749;            0   
    1959;  1730.7502;            0   
    1960;  1731.6254;            0   
    1961;  1732.5007;            0   
    1962;  1733.3760;            0   
    1963;  1734.2513;            0   
    1964;  1735.1265;            0   
    1965;  1736.0018;            0   
    1966;  1736.8771;            0   
    1967;  1737.7524;            0   
    1968;  1738.6276;            0   
    1969;  1739.5029;            0   
    1970;  1740.3782;            0   
    1971;  1741.2535;            0   
    1972;  1742.1287;            0   
    1973;  1743.0040;            0   
    1974;  1743.8793;            0   
    1975;  1744.7546;            0   
    1976;  1745.6298;            0   
    1977;  1746.5051;            0   
    1978;  1747.3804;            0   
    1979;  1748.2557;            0   
    1980;  1749.1309;            0   
    1981;  1750.0062;            0   
    1982;  1750.8815;            0   
    1983;  1751.7568;            0   
    1984;  1752.6320;            0   
    1985;  1753.5073;            0   
    1986;  1754.3826;            0   
    1987;  1755.2579;            0   
    1988;  1756.1331;            0   
    1989;  1757.0084;            0   
    1990;  1757.8837;            0   
    1991;  1758.7590;            0   
    1992;  1759.6342;            0   
    1993;  1760.5095;            0   
    1994;  1761.3848;            0   
    1995;  1762.2601;            0   
    1996;  1763.1353;            0   
    1997;  1764.0106;            0   
    1998;  1764.8859;            0   
    1999;  1765.7612;            0   
    2000;  1766.6364;            0   
    2001;  1767.5117;            0   
    2002;  1768.3870;            0   
    2003;  1769.2623;            0   
    2004;  1770.1375;            0   
    2005;  1771.0128;            0   
    2006;  1771.8881;            0   
    2007;  1772.7634;            0   
    2008;  1773.6386;            0   
    2009;  1774.5139;            0   
    2010;  1775.3892;            0   
    2011;  1776.2645;            0   
    2012;  1777.1397;            0   
    2013;  1778.0150;            0   
    2014;  1778.8903;            0   
    2015;  1779.7656;            0   
    2016;  1780.6408;            0   
    2017;  1781.5161;            0   
    2018;  1782.3914;            0   
    2019;  1783.2667;            0   
    2020;  1784.1419;            0   
    2021;  1785.0172;            0   
    2022;  1785.8925;            0   
    2023;  1786.7678;            0   
    2024;  1787.6430;            0   
    2025;  1788.5183;            0   
    2026;  1789.3936;            0   
    2027;  1790.2689;            0   
    2028;  1791.1441;            0   
    2029;  1792.0194;            0   
    2030;  1792.8947;            0   
    2031;  1793.7700;            0   
    2032;  1794.6452;            0   
    2033;  1795.5205;            0   
    2034;  1796.3958;            0   
    2035;  1797.2711;            0   
    2036;  1798.1463;            0   
    2037;  1799.0216;            0   
    2038;  1799.8969;            0   
    2039;  1800.7722;            0   
    2040;  1801.6474;            0   
    2041;  1802.5227;            0   
    2042;  1803.3980;            0   
    2043;  1804.2733;            0   
    2044;  1805.1485;            0   
    2045;  1806.0238;            0   
    2046;  1806.8991;            0   
    2047;  1807.7744;            0   
    2048;  1808.6496;            0   
ROI Nummer; Anfangskanal; Endkanal; Anfangsenergie keV ; Endenergie keV; Nettoimpulse; Bruttoimpulse; Untergrundimpulse
In den Daten wurden keine Linien gefunden
ROI Nummer; prozentualer Fehler der Lage; Lage keV; FWHM keV; FWTM keV; FWTM/FWHM Verhltnis; H/L Verhltnis
No Peak records found in data.
Name; Energie keV; Flags; Aktivitt uCi/Unit; Aktivittsfehler %; NWG uCi/Unit; MDA Error %
Es wurden keine Nuklidergebnisse gefunden.
Name; Erwartete Endergie keV; Gemessene Energie keV; Differenz von erwarteter keV; FWHM; Flags; Aktivitt uCi/Unit; Aktivittsfehler %
Es wurden keine Nuklidergebnisse gefunden.
