Kanal;   Energie(keV); Impulse
       1;    16.9617;         1090   
       2;    17.8370;         1154   
       3;    18.7122;         1114   
       4;    19.5875;         1224   
       5;    20.4628;         1292   
       6;    21.3381;         1363   
       7;    22.2133;         1467   
       8;    23.0886;         1558   
       9;    23.9639;         1597   
      10;    24.8392;         1726   
      11;    25.7144;         1856   
      12;    26.5897;         2029   
      13;    27.4650;         2209   
      14;    28.3403;         2343   
      15;    29.2155;         2477   
      16;    30.0908;         2606   
      17;    30.9661;         2634   
      18;    31.8414;         2548   
      19;    32.7166;         2616   
      20;    33.5919;         2477   
      21;    34.4672;         2411   
      22;    35.3425;         2453   
      23;    36.2177;         2431   
      24;    37.0930;         2333   
      25;    37.9683;         2332   
      26;    38.8436;         2286   
      27;    39.7188;         2371   
      28;    40.5941;         2191   
      29;    41.4694;         2276   
      30;    42.3447;         2223   
      31;    43.2199;         2245   
      32;    44.0952;         2202   
      33;    44.9705;         2226   
      34;    45.8458;         2135   
      35;    46.7210;         2173   
      36;    47.5963;         2109   
      37;    48.4716;         2133   
      38;    49.3469;         2109   
      39;    50.2221;         2137   
      40;    51.0974;         2075   
      41;    51.9727;         2098   
      42;    52.8480;         2068   
      43;    53.7232;         2053   
      44;    54.5985;         1992   
      45;    55.4738;         2045   
      46;    56.3491;         1982   
      47;    57.2243;         1970   
      48;    58.0996;         1979   
      49;    58.9749;         1909   
      50;    59.8502;         1894   
      51;    60.7254;         1924   
      52;    61.6007;         1865   
      53;    62.4760;         1901   
      54;    63.3513;         1785   
      55;    64.2265;         1802   
      56;    65.1018;         1862   
      57;    65.9771;         1772   
      58;    66.8524;         1850   
      59;    67.7276;         1795   
      60;    68.6029;         1832   
      61;    69.4782;         1773   
      62;    70.3535;         1727   
      63;    71.2287;         1708   
      64;    72.1040;         1662   
      65;    72.9793;         1647   
      66;    73.8546;         1622   
      67;    74.7298;         1716   
      68;    75.6051;         1613   
      69;    76.4804;         1505   
      70;    77.3557;         1519   
      71;    78.2309;         1529   
      72;    79.1062;         1461   
      73;    79.9815;         1456   
      74;    80.8568;         1461   
      75;    81.7320;         1391   
      76;    82.6073;         1407   
      77;    83.4826;         1352   
      78;    84.3579;         1415   
      79;    85.2331;         1469   
      80;    86.1084;         1406   
      81;    86.9837;         1376   
      82;    87.8590;         1334   
      83;    88.7342;         1372   
      84;    89.6095;         1295   
      85;    90.4848;         1264   
      86;    91.3601;         1286   
      87;    92.2353;         1237   
      88;    93.1106;         1234   
      89;    93.9859;         1278   
      90;    94.8612;         1146   
      91;    95.7364;         1159   
      92;    96.6117;         1096   
      93;    97.4870;         1076   
      94;    98.3623;         1041   
      95;    99.2375;         1055   
      96;   100.1128;          979   
      97;   100.9881;         1012   
      98;   101.8634;          927   
      99;   102.7386;          959   
     100;   103.6139;          927   
     101;   104.4892;          953   
     102;   105.3645;          945   
     103;   106.2397;          935   
     104;   107.1150;          938   
     105;   107.9903;          871   
     106;   108.8656;          834   
     107;   109.7408;          824   
     108;   110.6161;          907   
     109;   111.4914;          810   
     110;   112.3667;          815   
     111;   113.2419;          824   
     112;   114.1172;          769   
     113;   114.9925;          779   
     114;   115.8678;          739   
     115;   116.7430;          783   
     116;   117.6183;          762   
     117;   118.4936;          758   
     118;   119.3689;          708   
     119;   120.2441;          692   
     120;   121.1194;          718   
     121;   121.9947;          660   
     122;   122.8700;          718   
     123;   123.7452;          690   
     124;   124.6205;          626   
     125;   125.4958;          631   
     126;   126.3711;          666   
     127;   127.2463;          624   
     128;   128.1216;          572   
     129;   128.9969;          551   
     130;   129.8722;          569   
     131;   130.7474;          562   
     132;   131.6227;          591   
     133;   132.4980;          549   
     134;   133.3733;          545   
     135;   134.2485;          535   
     136;   135.1238;          536   
     137;   135.9991;          485   
     138;   136.8744;          501   
     139;   137.7496;          510   
     140;   138.6249;          503   
     141;   139.5002;          465   
     142;   140.3755;          476   
     143;   141.2507;          460   
     144;   142.1260;          468   
     145;   143.0013;          442   
     146;   143.8766;          406   
     147;   144.7518;          421   
     148;   145.6271;          406   
     149;   146.5024;          392   
     150;   147.3777;          407   
     151;   148.2529;          365   
     152;   149.1282;          385   
     153;   150.0035;          348   
     154;   150.8788;          400   
     155;   151.7540;          350   
     156;   152.6293;          360   
     157;   153.5046;          346   
     158;   154.3799;          352   
     159;   155.2551;          354   
     160;   156.1304;          309   
     161;   157.0057;          336   
     162;   157.8810;          347   
     163;   158.7562;          338   
     164;   159.6315;          321   
     165;   160.5068;          333   
     166;   161.3821;          331   
     167;   162.2573;          289   
     168;   163.1326;          335   
     169;   164.0079;          306   
     170;   164.8832;          307   
     171;   165.7584;          338   
     172;   166.6337;          349   
     173;   167.5090;          344   
     174;   168.3843;          333   
     175;   169.2595;          343   
     176;   170.1348;          331   
     177;   171.0101;          353   
     178;   171.8854;          353   
     179;   172.7606;          341   
     180;   173.6359;          348   
     181;   174.5112;          373   
     182;   175.3865;          381   
     183;   176.2617;          435   
     184;   177.1370;          465   
     185;   178.0123;          529   
     186;   178.8876;          556   
     187;   179.7628;          652   
     188;   180.6381;          684   
     189;   181.5134;          768   
     190;   182.3887;          901   
     191;   183.2639;         1039   
     192;   184.1392;         1056   
     193;   185.0145;         1166   
     194;   185.8898;         1335   
     195;   186.7650;         1516   
     196;   187.6403;         1544   
     197;   188.5156;         1616   
     198;   189.3909;         1650   
     199;   190.2661;         1817   
     200;   191.1414;         1739   
     201;   192.0167;         1716   
     202;   192.8920;         1640   
     203;   193.7672;         1694   
     204;   194.6425;         1576   
     205;   195.5178;         1415   
     206;   196.3931;         1340   
     207;   197.2683;         1250   
     208;   198.1436;         1062   
     209;   199.0189;          971   
     210;   199.8942;          916   
     211;   200.7694;          769   
     212;   201.6447;          631   
     213;   202.5200;          600   
     214;   203.3953;          515   
     215;   204.2705;          396   
     216;   205.1458;          377   
     217;   206.0211;          365   
     218;   206.8964;          327   
     219;   207.7716;          287   
     220;   208.6469;          252   
     221;   209.5222;          258   
     222;   210.3975;          232   
     223;   211.2727;          210   
     224;   212.1480;          222   
     225;   213.0233;          214   
     226;   213.8986;          217   
     227;   214.7738;          184   
     228;   215.6491;          209   
     229;   216.5244;          226   
     230;   217.3997;          199   
     231;   218.2749;          203   
     232;   219.1502;          211   
     233;   220.0255;          187   
     234;   220.9008;          178   
     235;   221.7760;          180   
     236;   222.6513;          174   
     237;   223.5266;          154   
     238;   224.4019;          195   
     239;   225.2771;          190   
     240;   226.1524;          188   
     241;   227.0277;          171   
     242;   227.9030;          165   
     243;   228.7782;          171   
     244;   229.6535;          167   
     245;   230.5288;          151   
     246;   231.4041;          166   
     247;   232.2793;          150   
     248;   233.1546;          164   
     249;   234.0299;          161   
     250;   234.9052;          127   
     251;   235.7804;          138   
     252;   236.6557;          148   
     253;   237.5310;          121   
     254;   238.4063;          135   
     255;   239.2815;          160   
     256;   240.1568;          135   
     257;   241.0321;          118   
     258;   241.9074;          117   
     259;   242.7826;          128   
     260;   243.6579;          118   
     261;   244.5332;          125   
     262;   245.4085;          112   
     263;   246.2837;          102   
     264;   247.1590;           95   
     265;   248.0343;          121   
     266;   248.9096;          114   
     267;   249.7848;          116   
     268;   250.6601;          106   
     269;   251.5354;          111   
     270;   252.4107;          103   
     271;   253.2859;          109   
     272;   254.1612;          126   
     273;   255.0365;          117   
     274;   255.9118;          104   
     275;   256.7870;          107   
     276;   257.6623;          105   
     277;   258.5376;          107   
     278;   259.4129;          105   
     279;   260.2881;           89   
     280;   261.1634;           98   
     281;   262.0387;           99   
     282;   262.9140;           97   
     283;   263.7892;           95   
     284;   264.6645;           95   
     285;   265.5398;          112   
     286;   266.4151;           95   
     287;   267.2903;           98   
     288;   268.1656;          118   
     289;   269.0409;          114   
     290;   269.9162;           75   
     291;   270.7914;          128   
     292;   271.6667;           94   
     293;   272.5420;           86   
     294;   273.4173;           76   
     295;   274.2925;           86   
     296;   275.1678;           85   
     297;   276.0431;          120   
     298;   276.9184;          114   
     299;   277.7936;           96   
     300;   278.6689;          112   
     301;   279.5442;           82   
     302;   280.4195;           95   
     303;   281.2947;           96   
     304;   282.1700;           71   
     305;   283.0453;           89   
     306;   283.9206;           87   
     307;   284.7958;           70   
     308;   285.6711;           85   
     309;   286.5464;           75   
     310;   287.4217;           84   
     311;   288.2969;          104   
     312;   289.1722;           88   
     313;   290.0475;           93   
     314;   290.9228;          105   
     315;   291.7980;           93   
     316;   292.6733;           95   
     317;   293.5486;           97   
     318;   294.4239;           76   
     319;   295.2991;           76   
     320;   296.1744;           89   
     321;   297.0497;           90   
     322;   297.9250;           74   
     323;   298.8002;           83   
     324;   299.6755;           83   
     325;   300.5508;           75   
     326;   301.4261;           86   
     327;   302.3013;           83   
     328;   303.1766;           72   
     329;   304.0519;           99   
     330;   304.9272;           79   
     331;   305.8024;           58   
     332;   306.6777;           87   
     333;   307.5530;           91   
     334;   308.4283;           76   
     335;   309.3035;           91   
     336;   310.1788;           74   
     337;   311.0541;           87   
     338;   311.9294;           78   
     339;   312.8046;           80   
     340;   313.6799;           66   
     341;   314.5552;           69   
     342;   315.4305;           98   
     343;   316.3057;           66   
     344;   317.1810;           70   
     345;   318.0563;           59   
     346;   318.9316;           74   
     347;   319.8068;           85   
     348;   320.6821;           78   
     349;   321.5574;           86   
     350;   322.4327;           71   
     351;   323.3079;           68   
     352;   324.1832;           83   
     353;   325.0585;           65   
     354;   325.9338;           66   
     355;   326.8090;           72   
     356;   327.6843;           67   
     357;   328.5596;           78   
     358;   329.4349;           59   
     359;   330.3101;           72   
     360;   331.1854;           65   
     361;   332.0607;           60   
     362;   332.9360;           67   
     363;   333.8112;           64   
     364;   334.6865;           73   
     365;   335.5618;           69   
     366;   336.4371;           60   
     367;   337.3123;           64   
     368;   338.1876;           69   
     369;   339.0629;           66   
     370;   339.9382;           63   
     371;   340.8134;           69   
     372;   341.6887;           70   
     373;   342.5640;           67   
     374;   343.4393;           92   
     375;   344.3145;           59   
     376;   345.1898;           61   
     377;   346.0651;           72   
     378;   346.9404;           60   
     379;   347.8156;           69   
     380;   348.6909;           66   
     381;   349.5662;           63   
     382;   350.4415;           71   
     383;   351.3167;           76   
     384;   352.1920;           75   
     385;   353.0673;           57   
     386;   353.9426;           60   
     387;   354.8178;           66   
     388;   355.6931;           71   
     389;   356.5684;           62   
     390;   357.4437;           79   
     391;   358.3189;           64   
     392;   359.1942;           67   
     393;   360.0695;           72   
     394;   360.9448;           64   
     395;   361.8200;           70   
     396;   362.6953;           62   
     397;   363.5706;           85   
     398;   364.4459;           54   
     399;   365.3211;           75   
     400;   366.1964;           55   
     401;   367.0717;           67   
     402;   367.9470;           66   
     403;   368.8222;           70   
     404;   369.6975;           77   
     405;   370.5728;           68   
     406;   371.4481;           61   
     407;   372.3233;           74   
     408;   373.1986;           67   
     409;   374.0739;           64   
     410;   374.9492;           63   
     411;   375.8244;           81   
     412;   376.6997;           68   
     413;   377.5750;           63   
     414;   378.4503;           70   
     415;   379.3255;           61   
     416;   380.2008;           69   
     417;   381.0761;           65   
     418;   381.9514;           72   
     419;   382.8266;           63   
     420;   383.7019;           65   
     421;   384.5772;           58   
     422;   385.4525;           79   
     423;   386.3277;           66   
     424;   387.2030;           68   
     425;   388.0783;           64   
     426;   388.9536;           63   
     427;   389.8288;           74   
     428;   390.7041;           72   
     429;   391.5794;           80   
     430;   392.4547;           69   
     431;   393.3299;           56   
     432;   394.2052;           83   
     433;   395.0805;           71   
     434;   395.9558;           68   
     435;   396.8310;           68   
     436;   397.7063;           74   
     437;   398.5816;           70   
     438;   399.4569;           71   
     439;   400.3321;           78   
     440;   401.2074;           70   
     441;   402.0827;           72   
     442;   402.9580;           71   
     443;   403.8332;           57   
     444;   404.7085;           50   
     445;   405.5838;           71   
     446;   406.4591;           71   
     447;   407.3343;           63   
     448;   408.2096;           76   
     449;   409.0849;           54   
     450;   409.9602;           64   
     451;   410.8354;           53   
     452;   411.7107;           66   
     453;   412.5860;           71   
     454;   413.4613;           82   
     455;   414.3365;           71   
     456;   415.2118;           77   
     457;   416.0871;           62   
     458;   416.9624;           77   
     459;   417.8376;           63   
     460;   418.7129;           65   
     461;   419.5882;           54   
     462;   420.4635;           60   
     463;   421.3387;           74   
     464;   422.2140;           84   
     465;   423.0893;           77   
     466;   423.9646;           69   
     467;   424.8398;           71   
     468;   425.7151;           62   
     469;   426.5904;           73   
     470;   427.4657;           73   
     471;   428.3409;           58   
     472;   429.2162;           66   
     473;   430.0915;           65   
     474;   430.9668;           78   
     475;   431.8420;           60   
     476;   432.7173;           69   
     477;   433.5926;           69   
     478;   434.4679;           61   
     479;   435.3431;           66   
     480;   436.2184;           73   
     481;   437.0937;           56   
     482;   437.9690;           65   
     483;   438.8442;           60   
     484;   439.7195;           63   
     485;   440.5948;           58   
     486;   441.4701;           65   
     487;   442.3453;           66   
     488;   443.2206;           62   
     489;   444.0959;           56   
     490;   444.9712;           57   
     491;   445.8464;           58   
     492;   446.7217;           58   
     493;   447.5970;           56   
     494;   448.4723;           70   
     495;   449.3475;           49   
     496;   450.2228;           53   
     497;   451.0981;           70   
     498;   451.9734;           74   
     499;   452.8486;           62   
     500;   453.7239;           65   
     501;   454.5992;           52   
     502;   455.4745;           64   
     503;   456.3497;           61   
     504;   457.2250;           55   
     505;   458.1003;           54   
     506;   458.9756;           64   
     507;   459.8508;           59   
     508;   460.7261;           50   
     509;   461.6014;           50   
     510;   462.4767;           52   
     511;   463.3519;           50   
     512;   464.2272;           51   
     513;   465.1025;           41   
     514;   465.9778;           46   
     515;   466.8530;           45   
     516;   467.7283;           51   
     517;   468.6036;           45   
     518;   469.4789;           52   
     519;   470.3541;           48   
     520;   471.2294;           54   
     521;   472.1047;           48   
     522;   472.9800;           43   
     523;   473.8552;           46   
     524;   474.7305;           54   
     525;   475.6058;           43   
     526;   476.4811;           42   
     527;   477.3563;           35   
     528;   478.2316;           46   
     529;   479.1069;           43   
     530;   479.9822;           52   
     531;   480.8574;           53   
     532;   481.7327;           37   
     533;   482.6080;           31   
     534;   483.4833;           35   
     535;   484.3585;           42   
     536;   485.2338;           37   
     537;   486.1091;           44   
     538;   486.9844;           34   
     539;   487.8596;           39   
     540;   488.7349;           43   
     541;   489.6102;           46   
     542;   490.4855;           37   
     543;   491.3607;           39   
     544;   492.2360;           38   
     545;   493.1113;           39   
     546;   493.9866;           40   
     547;   494.8618;           41   
     548;   495.7371;           41   
     549;   496.6124;           42   
     550;   497.4877;           28   
     551;   498.3629;           41   
     552;   499.2382;           34   
     553;   500.1135;           43   
     554;   500.9888;           46   
     555;   501.8640;           38   
     556;   502.7393;           34   
     557;   503.6146;           40   
     558;   504.4899;           40   
     559;   505.3651;           46   
     560;   506.2404;           46   
     561;   507.1157;           39   
     562;   507.9910;           28   
     563;   508.8662;           37   
     564;   509.7415;           40   
     565;   510.6168;           48   
     566;   511.4921;           34   
     567;   512.3673;           42   
     568;   513.2426;           32   
     569;   514.1179;           31   
     570;   514.9932;           41   
     571;   515.8684;           34   
     572;   516.7437;           37   
     573;   517.6190;           35   
     574;   518.4943;           33   
     575;   519.3695;           42   
     576;   520.2448;           41   
     577;   521.1201;           34   
     578;   521.9954;           37   
     579;   522.8706;           34   
     580;   523.7459;           31   
     581;   524.6212;           23   
     582;   525.4965;           31   
     583;   526.3717;           33   
     584;   527.2470;           39   
     585;   528.1223;           29   
     586;   528.9976;           38   
     587;   529.8728;           43   
     588;   530.7481;           33   
     589;   531.6234;           29   
     590;   532.4987;           48   
     591;   533.3739;           36   
     592;   534.2492;           29   
     593;   535.1245;           37   
     594;   535.9998;           33   
     595;   536.8750;           38   
     596;   537.7503;           37   
     597;   538.6256;           33   
     598;   539.5009;           43   
     599;   540.3761;           39   
     600;   541.2514;           37   
     601;   542.1267;           32   
     602;   543.0020;           43   
     603;   543.8772;           33   
     604;   544.7525;           28   
     605;   545.6278;           41   
     606;   546.5031;           33   
     607;   547.3783;           25   
     608;   548.2536;           36   
     609;   549.1289;           24   
     610;   550.0042;           34   
     611;   550.8794;           36   
     612;   551.7547;           21   
     613;   552.6300;           29   
     614;   553.5053;           40   
     615;   554.3805;           24   
     616;   555.2558;           34   
     617;   556.1311;           27   
     618;   557.0064;           28   
     619;   557.8816;           35   
     620;   558.7569;           37   
     621;   559.6322;           38   
     622;   560.5075;           37   
     623;   561.3827;           26   
     624;   562.2580;           36   
     625;   563.1333;           28   
     626;   564.0086;           35   
     627;   564.8838;           35   
     628;   565.7591;           28   
     629;   566.6344;           24   
     630;   567.5097;           30   
     631;   568.3849;           25   
     632;   569.2602;           21   
     633;   570.1355;           31   
     634;   571.0108;           25   
     635;   571.8860;           30   
     636;   572.7613;           33   
     637;   573.6366;           25   
     638;   574.5119;           24   
     639;   575.3871;           24   
     640;   576.2624;           29   
     641;   577.1377;           30   
     642;   578.0130;           28   
     643;   578.8882;           32   
     644;   579.7635;           25   
     645;   580.6388;           30   
     646;   581.5141;           30   
     647;   582.3893;           27   
     648;   583.2646;           36   
     649;   584.1399;           26   
     650;   585.0152;           35   
     651;   585.8904;           34   
     652;   586.7657;           32   
     653;   587.6410;           35   
     654;   588.5163;           24   
     655;   589.3915;           29   
     656;   590.2668;           39   
     657;   591.1421;           41   
     658;   592.0174;           44   
     659;   592.8926;           31   
     660;   593.7679;           37   
     661;   594.6432;           43   
     662;   595.5185;           53   
     663;   596.3937;           46   
     664;   597.2690;           59   
     665;   598.1443;           37   
     666;   599.0196;           40   
     667;   599.8948;           34   
     668;   600.7701;           39   
     669;   601.6454;           47   
     670;   602.5207;           38   
     671;   603.3959;           31   
     672;   604.2712;           52   
     673;   605.1465;           55   
     674;   606.0218;           52   
     675;   606.8970;           35   
     676;   607.7723;           45   
     677;   608.6476;           39   
     678;   609.5229;           60   
     679;   610.3981;           58   
     680;   611.2734;           51   
     681;   612.1487;           48   
     682;   613.0240;           57   
     683;   613.8992;           61   
     684;   614.7745;           65   
     685;   615.6498;           66   
     686;   616.5251;           68   
     687;   617.4003;           68   
     688;   618.2756;           64   
     689;   619.1509;           75   
     690;   620.0262;           86   
     691;   620.9014;           81   
     692;   621.7767;           70   
     693;   622.6520;           86   
     694;   623.5273;           75   
     695;   624.4025;           88   
     696;   625.2778;           76   
     697;   626.1531;           90   
     698;   627.0284;           77   
     699;   627.9036;           80   
     700;   628.7789;           86   
     701;   629.6542;           89   
     702;   630.5295;           89   
     703;   631.4047;           91   
     704;   632.2800;           86   
     705;   633.1553;          100   
     706;   634.0306;           91   
     707;   634.9058;           89   
     708;   635.7811;           93   
     709;   636.6564;           81   
     710;   637.5317;          104   
     711;   638.4069;          103   
     712;   639.2822;           93   
     713;   640.1575;           97   
     714;   641.0328;          123   
     715;   641.9080;          110   
     716;   642.7833;          102   
     717;   643.6586;           97   
     718;   644.5339;          108   
     719;   645.4091;          105   
     720;   646.2844;          112   
     721;   647.1597;          110   
     722;   648.0350;           97   
     723;   648.9102;           92   
     724;   649.7855;          101   
     725;   650.6608;          109   
     726;   651.5361;          104   
     727;   652.4113;          103   
     728;   653.2866;           92   
     729;   654.1619;          112   
     730;   655.0372;          101   
     731;   655.9124;          103   
     732;   656.7877;           86   
     733;   657.6630;           78   
     734;   658.5383;           68   
     735;   659.4135;           70   
     736;   660.2888;           92   
     737;   661.1641;           75   
     738;   662.0394;           83   
     739;   662.9146;           74   
     740;   663.7899;           74   
     741;   664.6652;           60   
     742;   665.5405;           66   
     743;   666.4157;           82   
     744;   667.2910;           68   
     745;   668.1663;           68   
     746;   669.0416;           64   
     747;   669.9168;           69   
     748;   670.7921;           78   
     749;   671.6674;           72   
     750;   672.5427;           55   
     751;   673.4179;           66   
     752;   674.2932;           38   
     753;   675.1685;           44   
     754;   676.0438;           61   
     755;   676.9190;           55   
     756;   677.7943;           55   
     757;   678.6696;           39   
     758;   679.5449;           44   
     759;   680.4201;           46   
     760;   681.2954;           32   
     761;   682.1707;           43   
     762;   683.0460;           33   
     763;   683.9212;           39   
     764;   684.7965;           31   
     765;   685.6718;           29   
     766;   686.5471;           30   
     767;   687.4223;           32   
     768;   688.2976;           27   
     769;   689.1729;           36   
     770;   690.0482;           24   
     771;   690.9234;           29   
     772;   691.7987;           23   
     773;   692.6740;           31   
     774;   693.5493;           24   
     775;   694.4245;           21   
     776;   695.2998;           19   
     777;   696.1751;           24   
     778;   697.0504;           22   
     779;   697.9256;           27   
     780;   698.8009;           31   
     781;   699.6762;           24   
     782;   700.5515;           12   
     783;   701.4267;           19   
     784;   702.3020;           15   
     785;   703.1773;           22   
     786;   704.0526;           13   
     787;   704.9278;           17   
     788;   705.8031;           15   
     789;   706.6784;           24   
     790;   707.5537;           17   
     791;   708.4289;           18   
     792;   709.3042;           24   
     793;   710.1795;           22   
     794;   711.0548;           19   
     795;   711.9300;           18   
     796;   712.8053;           22   
     797;   713.6806;           22   
     798;   714.5559;           20   
     799;   715.4311;           12   
     800;   716.3064;           25   
     801;   717.1817;           21   
     802;   718.0570;           21   
     803;   718.9322;           27   
     804;   719.8075;           20   
     805;   720.6828;           15   
     806;   721.5581;           22   
     807;   722.4333;           26   
     808;   723.3086;           20   
     809;   724.1839;           17   
     810;   725.0592;           21   
     811;   725.9344;           19   
     812;   726.8097;           26   
     813;   727.6850;           23   
     814;   728.5603;           22   
     815;   729.4355;           42   
     816;   730.3108;           28   
     817;   731.1861;           37   
     818;   732.0614;           19   
     819;   732.9366;           27   
     820;   733.8119;           27   
     821;   734.6872;           27   
     822;   735.5625;           32   
     823;   736.4377;           20   
     824;   737.3130;           26   
     825;   738.1883;           30   
     826;   739.0636;           31   
     827;   739.9388;           28   
     828;   740.8141;           36   
     829;   741.6894;           34   
     830;   742.5647;           21   
     831;   743.4399;           27   
     832;   744.3152;           22   
     833;   745.1905;           36   
     834;   746.0658;           36   
     835;   746.9410;           32   
     836;   747.8163;           38   
     837;   748.6916;           30   
     838;   749.5669;           38   
     839;   750.4421;           40   
     840;   751.3174;           38   
     841;   752.1927;           42   
     842;   753.0680;           34   
     843;   753.9432;           32   
     844;   754.8185;           38   
     845;   755.6938;           40   
     846;   756.5691;           36   
     847;   757.4443;           34   
     848;   758.3196;           41   
     849;   759.1949;           38   
     850;   760.0702;           44   
     851;   760.9454;           51   
     852;   761.8207;           41   
     853;   762.6960;           44   
     854;   763.5713;           34   
     855;   764.4465;           43   
     856;   765.3218;           44   
     857;   766.1971;           37   
     858;   767.0724;           52   
     859;   767.9476;           40   
     860;   768.8229;           38   
     861;   769.6982;           42   
     862;   770.5735;           38   
     863;   771.4487;           42   
     864;   772.3240;           37   
     865;   773.1993;           34   
     866;   774.0746;           38   
     867;   774.9498;           34   
     868;   775.8251;           45   
     869;   776.7004;           45   
     870;   777.5757;           44   
     871;   778.4509;           37   
     872;   779.3262;           44   
     873;   780.2015;           41   
     874;   781.0768;           37   
     875;   781.9520;           41   
     876;   782.8273;           36   
     877;   783.7026;           46   
     878;   784.5779;           36   
     879;   785.4531;           41   
     880;   786.3284;           51   
     881;   787.2037;           34   
     882;   788.0790;           40   
     883;   788.9542;           37   
     884;   789.8295;           42   
     885;   790.7048;           34   
     886;   791.5801;           39   
     887;   792.4553;           44   
     888;   793.3306;           32   
     889;   794.2059;           32   
     890;   795.0812;           25   
     891;   795.9564;           38   
     892;   796.8317;           23   
     893;   797.7070;           32   
     894;   798.5823;           33   
     895;   799.4575;           25   
     896;   800.3328;           35   
     897;   801.2081;           31   
     898;   802.0834;           30   
     899;   802.9586;           30   
     900;   803.8339;           26   
     901;   804.7092;           25   
     902;   805.5845;           21   
     903;   806.4597;           23   
     904;   807.3350;           28   
     905;   808.2103;           23   
     906;   809.0856;           24   
     907;   809.9608;           16   
     908;   810.8361;           21   
     909;   811.7114;           26   
     910;   812.5867;           31   
     911;   813.4619;           14   
     912;   814.3372;           17   
     913;   815.2125;           22   
     914;   816.0878;           15   
     915;   816.9631;           18   
     916;   817.8383;           14   
     917;   818.7136;           20   
     918;   819.5889;           27   
     919;   820.4642;           20   
     920;   821.3394;           17   
     921;   822.2147;           15   
     922;   823.0900;           17   
     923;   823.9653;           19   
     924;   824.8405;           15   
     925;   825.7158;           14   
     926;   826.5911;           13   
     927;   827.4664;           11   
     928;   828.3416;           11   
     929;   829.2169;           17   
     930;   830.0922;           13   
     931;   830.9675;            9   
     932;   831.8427;           13   
     933;   832.7180;           11   
     934;   833.5933;            9   
     935;   834.4686;            8   
     936;   835.3438;           19   
     937;   836.2191;            7   
     938;   837.0944;           12   
     939;   837.9697;           10   
     940;   838.8449;           11   
     941;   839.7202;            9   
     942;   840.5955;            8   
     943;   841.4708;           10   
     944;   842.3460;           15   
     945;   843.2213;            9   
     946;   844.0966;            7   
     947;   844.9719;            9   
     948;   845.8471;            8   
     949;   846.7224;           13   
     950;   847.5977;            8   
     951;   848.4730;           10   
     952;   849.3482;            4   
     953;   850.2235;           12   
     954;   851.0988;           12   
     955;   851.9741;            8   
     956;   852.8493;           16   
     957;   853.7246;            8   
     958;   854.5999;            8   
     959;   855.4752;           11   
     960;   856.3504;            3   
     961;   857.2257;           12   
     962;   858.1010;            8   
     963;   858.9763;            7   
     964;   859.8515;            8   
     965;   860.7268;            6   
     966;   861.6021;            3   
     967;   862.4774;           12   
     968;   863.3526;           11   
     969;   864.2279;            6   
     970;   865.1032;            6   
     971;   865.9785;            7   
     972;   866.8537;            7   
     973;   867.7290;            4   
     974;   868.6043;            6   
     975;   869.4796;            8   
     976;   870.3548;            3   
     977;   871.2301;            5   
     978;   872.1054;            7   
     979;   872.9807;            7   
     980;   873.8559;            8   
     981;   874.7312;            6   
     982;   875.6065;           12   
     983;   876.4818;            5   
     984;   877.3570;            6   
     985;   878.2323;            8   
     986;   879.1076;            9   
     987;   879.9829;            6   
     988;   880.8581;            9   
     989;   881.7334;            4   
     990;   882.6087;            9   
     991;   883.4840;            4   
     992;   884.3592;            7   
     993;   885.2345;            8   
     994;   886.1098;            5   
     995;   886.9851;            5   
     996;   887.8603;            8   
     997;   888.7356;            8   
     998;   889.6109;            6   
     999;   890.4862;            5   
    1000;   891.3614;            6   
    1001;   892.2367;            4   
    1002;   893.1120;            5   
    1003;   893.9873;            2   
    1004;   894.8625;            5   
    1005;   895.7378;            8   
    1006;   896.6131;            2   
    1007;   897.4884;            6   
    1008;   898.3636;            6   
    1009;   899.2389;            1   
    1010;   900.1142;            6   
    1011;   900.9895;            7   
    1012;   901.8647;            4   
    1013;   902.7400;            6   
    1014;   903.6153;            3   
    1015;   904.4906;            5   
    1016;   905.3658;            6   
    1017;   906.2411;            2   
    1018;   907.1164;            5   
    1019;   907.9917;            3   
    1020;   908.8669;            4   
    1021;   909.7422;            2   
    1022;   910.6175;            1   
    1023;   911.4928;            4   
    1024;   912.3680;            3   
    1025;   913.2433;            1   
    1026;   914.1186;            3   
    1027;   914.9939;            6   
    1028;   915.8691;            9   
    1029;   916.7444;            5   
    1030;   917.6197;            6   
    1031;   918.4950;            1   
    1032;   919.3702;            4   
    1033;   920.2455;            3   
    1034;   921.1208;            6   
    1035;   921.9961;            4   
    1036;   922.8713;            4   
    1037;   923.7466;            3   
    1038;   924.6219;            5   
    1039;   925.4972;            2   
    1040;   926.3724;            0   
    1041;   927.2477;            7   
    1042;   928.1230;            6   
    1043;   928.9983;            6   
    1044;   929.8735;            6   
    1045;   930.7488;            7   
    1046;   931.6241;            4   
    1047;   932.4994;            6   
    1048;   933.3746;            3   
    1049;   934.2499;            7   
    1050;   935.1252;            3   
    1051;   936.0005;            3   
    1052;   936.8757;            6   
    1053;   937.7510;            3   
    1054;   938.6263;            4   
    1055;   939.5016;            6   
    1056;   940.3768;            8   
    1057;   941.2521;            7   
    1058;   942.1274;            5   
    1059;   943.0027;            5   
    1060;   943.8779;           10   
    1061;   944.7532;            9   
    1062;   945.6285;            4   
    1063;   946.5038;            7   
    1064;   947.3790;            5   
    1065;   948.2543;            6   
    1066;   949.1296;            8   
    1067;   950.0049;            2   
    1068;   950.8801;            3   
    1069;   951.7554;            4   
    1070;   952.6307;            8   
    1071;   953.5060;            5   
    1072;   954.3812;            4   
    1073;   955.2565;            2   
    1074;   956.1318;            5   
    1075;   957.0071;            8   
    1076;   957.8823;            6   
    1077;   958.7576;            9   
    1078;   959.6329;            5   
    1079;   960.5082;            4   
    1080;   961.3834;            4   
    1081;   962.2587;            5   
    1082;   963.1340;            6   
    1083;   964.0093;            7   
    1084;   964.8845;            7   
    1085;   965.7598;            6   
    1086;   966.6351;            8   
    1087;   967.5104;            4   
    1088;   968.3856;            4   
    1089;   969.2609;            5   
    1090;   970.1362;            7   
    1091;   971.0115;            3   
    1092;   971.8867;            4   
    1093;   972.7620;            7   
    1094;   973.6373;            5   
    1095;   974.5126;            4   
    1096;   975.3878;            7   
    1097;   976.2631;            3   
    1098;   977.1384;            6   
    1099;   978.0137;            2   
    1100;   978.8889;            3   
    1101;   979.7642;            5   
    1102;   980.6395;            4   
    1103;   981.5148;            3   
    1104;   982.3900;            5   
    1105;   983.2653;            8   
    1106;   984.1406;            4   
    1107;   985.0159;            4   
    1108;   985.8911;            4   
    1109;   986.7664;            7   
    1110;   987.6417;            6   
    1111;   988.5170;            3   
    1112;   989.3922;            5   
    1113;   990.2675;            4   
    1114;   991.1428;            7   
    1115;   992.0181;            6   
    1116;   992.8933;            7   
    1117;   993.7686;            6   
    1118;   994.6439;            6   
    1119;   995.5192;           10   
    1120;   996.3944;           12   
    1121;   997.2697;            4   
    1122;   998.1450;            3   
    1123;   999.0203;            9   
    1124;   999.8955;            6   
    1125;  1000.7708;            9   
    1126;  1001.6461;           10   
    1127;  1002.5214;            5   
    1128;  1003.3966;            8   
    1129;  1004.2719;            4   
    1130;  1005.1472;           12   
    1131;  1006.0225;            9   
    1132;  1006.8977;            9   
    1133;  1007.7730;            9   
    1134;  1008.6483;            5   
    1135;  1009.5236;            5   
    1136;  1010.3988;            4   
    1137;  1011.2741;           10   
    1138;  1012.1494;            6   
    1139;  1013.0247;            8   
    1140;  1013.8999;            4   
    1141;  1014.7752;            9   
    1142;  1015.6505;            3   
    1143;  1016.5258;            8   
    1144;  1017.4010;           10   
    1145;  1018.2763;            5   
    1146;  1019.1516;            8   
    1147;  1020.0269;            7   
    1148;  1020.9021;           10   
    1149;  1021.7774;            9   
    1150;  1022.6527;            8   
    1151;  1023.5280;            9   
    1152;  1024.4032;            8   
    1153;  1025.2785;            5   
    1154;  1026.1538;            5   
    1155;  1027.0291;            3   
    1156;  1027.9043;           11   
    1157;  1028.7796;            1   
    1158;  1029.6549;            8   
    1159;  1030.5302;            8   
    1160;  1031.4054;            4   
    1161;  1032.2807;            6   
    1162;  1033.1560;            7   
    1163;  1034.0313;            8   
    1164;  1034.9065;            6   
    1165;  1035.7818;            7   
    1166;  1036.6571;            5   
    1167;  1037.5324;            8   
    1168;  1038.4076;            5   
    1169;  1039.2829;            9   
    1170;  1040.1582;            5   
    1171;  1041.0335;            4   
    1172;  1041.9087;            2   
    1173;  1042.7840;           11   
    1174;  1043.6593;            4   
    1175;  1044.5346;            6   
    1176;  1045.4098;            6   
    1177;  1046.2851;            3   
    1178;  1047.1604;            5   
    1179;  1048.0357;            3   
    1180;  1048.9109;            5   
    1181;  1049.7862;            8   
    1182;  1050.6615;            6   
    1183;  1051.5368;            7   
    1184;  1052.4120;            3   
    1185;  1053.2873;            7   
    1186;  1054.1626;            5   
    1187;  1055.0379;           11   
    1188;  1055.9131;            5   
    1189;  1056.7884;            6   
    1190;  1057.6637;            6   
    1191;  1058.5390;            4   
    1192;  1059.4142;            7   
    1193;  1060.2895;           10   
    1194;  1061.1648;            6   
    1195;  1062.0401;            3   
    1196;  1062.9153;            6   
    1197;  1063.7906;            3   
    1198;  1064.6659;            2   
    1199;  1065.5412;            6   
    1200;  1066.4164;            5   
    1201;  1067.2917;            2   
    1202;  1068.1670;            4   
    1203;  1069.0423;            2   
    1204;  1069.9175;            4   
    1205;  1070.7928;            5   
    1206;  1071.6681;            2   
    1207;  1072.5434;            3   
    1208;  1073.4186;            5   
    1209;  1074.2939;            5   
    1210;  1075.1692;            2   
    1211;  1076.0445;            2   
    1212;  1076.9197;            1   
    1213;  1077.7950;            3   
    1214;  1078.6703;            2   
    1215;  1079.5456;            1   
    1216;  1080.4208;            2   
    1217;  1081.2961;            5   
    1218;  1082.1714;            3   
    1219;  1083.0467;            7   
    1220;  1083.9219;            2   
    1221;  1084.7972;            3   
    1222;  1085.6725;            1   
    1223;  1086.5478;            2   
    1224;  1087.4230;            4   
    1225;  1088.2983;            2   
    1226;  1089.1736;            3   
    1227;  1090.0489;            1   
    1228;  1090.9241;            2   
    1229;  1091.7994;            3   
    1230;  1092.6747;            3   
    1231;  1093.5500;            2   
    1232;  1094.4252;            2   
    1233;  1095.3005;            1   
    1234;  1096.1758;            3   
    1235;  1097.0511;            3   
    1236;  1097.9263;            0   
    1237;  1098.8016;            2   
    1238;  1099.6769;            3   
    1239;  1100.5522;            5   
    1240;  1101.4274;            5   
    1241;  1102.3027;            1   
    1242;  1103.1780;            0   
    1243;  1104.0533;            2   
    1244;  1104.9285;            2   
    1245;  1105.8038;            0   
    1246;  1106.6791;            2   
    1247;  1107.5544;            0   
    1248;  1108.4296;            1   
    1249;  1109.3049;            3   
    1250;  1110.1802;            0   
    1251;  1111.0555;            1   
    1252;  1111.9307;            3   
    1253;  1112.8060;            4   
    1254;  1113.6813;            1   
    1255;  1114.5566;            2   
    1256;  1115.4318;            2   
    1257;  1116.3071;            1   
    1258;  1117.1824;            1   
    1259;  1118.0577;            2   
    1260;  1118.9329;            3   
    1261;  1119.8082;            4   
    1262;  1120.6835;            6   
    1263;  1121.5588;            2   
    1264;  1122.4340;            4   
    1265;  1123.3093;            0   
    1266;  1124.1846;            3   
    1267;  1125.0599;            6   
    1268;  1125.9351;            3   
    1269;  1126.8104;            4   
    1270;  1127.6857;            4   
    1271;  1128.5610;            1   
    1272;  1129.4362;            1   
    1273;  1130.3115;            3   
    1274;  1131.1868;            5   
    1275;  1132.0621;            2   
    1276;  1132.9373;            1   
    1277;  1133.8126;            1   
    1278;  1134.6879;            4   
    1279;  1135.5632;            1   
    1280;  1136.4384;            2   
    1281;  1137.3137;            1   
    1282;  1138.1890;            1   
    1283;  1139.0643;            1   
    1284;  1139.9395;            3   
    1285;  1140.8148;            4   
    1286;  1141.6901;            1   
    1287;  1142.5654;            2   
    1288;  1143.4406;            2   
    1289;  1144.3159;            2   
    1290;  1145.1912;            1   
    1291;  1146.0665;            1   
    1292;  1146.9417;            1   
    1293;  1147.8170;            3   
    1294;  1148.6923;            2   
    1295;  1149.5676;            3   
    1296;  1150.4428;            2   
    1297;  1151.3181;            4   
    1298;  1152.1934;            3   
    1299;  1153.0687;            3   
    1300;  1153.9439;            2   
    1301;  1154.8192;            1   
    1302;  1155.6945;            4   
    1303;  1156.5698;            2   
    1304;  1157.4450;            0   
    1305;  1158.3203;            1   
    1306;  1159.1956;            0   
    1307;  1160.0709;            2   
    1308;  1160.9461;            3   
    1309;  1161.8214;            1   
    1310;  1162.6967;            4   
    1311;  1163.5720;            2   
    1312;  1164.4472;            4   
    1313;  1165.3225;            2   
    1314;  1166.1978;            5   
    1315;  1167.0731;            4   
    1316;  1167.9483;            1   
    1317;  1168.8236;            0   
    1318;  1169.6989;            0   
    1319;  1170.5742;            2   
    1320;  1171.4494;            2   
    1321;  1172.3247;            3   
    1322;  1173.2000;            0   
    1323;  1174.0753;            0   
    1324;  1174.9505;            4   
    1325;  1175.8258;            1   
    1326;  1176.7011;            3   
    1327;  1177.5764;            0   
    1328;  1178.4516;            2   
    1329;  1179.3269;            1   
    1330;  1180.2022;            2   
    1331;  1181.0775;            4   
    1332;  1181.9527;            1   
    1333;  1182.8280;            1   
    1334;  1183.7033;            2   
    1335;  1184.5786;            3   
    1336;  1185.4538;            3   
    1337;  1186.3291;            4   
    1338;  1187.2044;            1   
    1339;  1188.0797;            4   
    1340;  1188.9549;            6   
    1341;  1189.8302;            1   
    1342;  1190.7055;            0   
    1343;  1191.5808;            2   
    1344;  1192.4560;            1   
    1345;  1193.3313;            3   
    1346;  1194.2066;            1   
    1347;  1195.0819;            2   
    1348;  1195.9571;            2   
    1349;  1196.8324;            2   
    1350;  1197.7077;            2   
    1351;  1198.5830;            1   
    1352;  1199.4582;            2   
    1353;  1200.3335;            3   
    1354;  1201.2088;            1   
    1355;  1202.0841;            3   
    1356;  1202.9593;            4   
    1357;  1203.8346;            0   
    1358;  1204.7099;            2   
    1359;  1205.5852;            3   
    1360;  1206.4604;            5   
    1361;  1207.3357;            4   
    1362;  1208.2110;            3   
    1363;  1209.0863;            3   
    1364;  1209.9615;            4   
    1365;  1210.8368;            0   
    1366;  1211.7121;            2   
    1367;  1212.5874;            4   
    1368;  1213.4626;            1   
    1369;  1214.3379;            2   
    1370;  1215.2132;            1   
    1371;  1216.0885;            6   
    1372;  1216.9637;            5   
    1373;  1217.8390;            1   
    1374;  1218.7143;            6   
    1375;  1219.5896;            3   
    1376;  1220.4648;            2   
    1377;  1221.3401;            0   
    1378;  1222.2154;            1   
    1379;  1223.0907;            3   
    1380;  1223.9659;            1   
    1381;  1224.8412;            3   
    1382;  1225.7165;            1   
    1383;  1226.5918;            4   
    1384;  1227.4670;            2   
    1385;  1228.3423;            0   
    1386;  1229.2176;            6   
    1387;  1230.0929;            2   
    1388;  1230.9681;            0   
    1389;  1231.8434;            3   
    1390;  1232.7187;            3   
    1391;  1233.5940;            2   
    1392;  1234.4692;            4   
    1393;  1235.3445;            2   
    1394;  1236.2198;            5   
    1395;  1237.0951;            3   
    1396;  1237.9703;            2   
    1397;  1238.8456;            3   
    1398;  1239.7209;            1   
    1399;  1240.5962;            3   
    1400;  1241.4714;            1   
    1401;  1242.3467;            2   
    1402;  1243.2220;            6   
    1403;  1244.0973;            2   
    1404;  1244.9725;            1   
    1405;  1245.8478;            2   
    1406;  1246.7231;            3   
    1407;  1247.5984;            2   
    1408;  1248.4736;            6   
    1409;  1249.3489;            4   
    1410;  1250.2242;            2   
    1411;  1251.0995;            0   
    1412;  1251.9747;            3   
    1413;  1252.8500;            2   
    1414;  1253.7253;            2   
    1415;  1254.6006;            2   
    1416;  1255.4758;            3   
    1417;  1256.3511;            1   
    1418;  1257.2264;            4   
    1419;  1258.1017;            4   
    1420;  1258.9769;            2   
    1421;  1259.8522;            1   
    1422;  1260.7275;            2   
    1423;  1261.6028;            3   
    1424;  1262.4780;            0   
    1425;  1263.3533;            2   
    1426;  1264.2286;            2   
    1427;  1265.1039;            2   
    1428;  1265.9791;            4   
    1429;  1266.8544;            1   
    1430;  1267.7297;            0   
    1431;  1268.6050;            2   
    1432;  1269.4802;            1   
    1433;  1270.3555;            4   
    1434;  1271.2308;            2   
    1435;  1272.1061;            2   
    1436;  1272.9813;            3   
    1437;  1273.8566;            0   
    1438;  1274.7319;            1   
    1439;  1275.6072;            0   
    1440;  1276.4824;            1   
    1441;  1277.3577;            2   
    1442;  1278.2330;            3   
    1443;  1279.1083;            3   
    1444;  1279.9835;            4   
    1445;  1280.8588;            4   
    1446;  1281.7341;            4   
    1447;  1282.6094;            1   
    1448;  1283.4846;            6   
    1449;  1284.3599;            1   
    1450;  1285.2352;            2   
    1451;  1286.1105;            1   
    1452;  1286.9857;            0   
    1453;  1287.8610;            1   
    1454;  1288.7363;            2   
    1455;  1289.6116;            2   
    1456;  1290.4868;            3   
    1457;  1291.3621;            2   
    1458;  1292.2374;            3   
    1459;  1293.1127;            6   
    1460;  1293.9879;            3   
    1461;  1294.8632;            1   
    1462;  1295.7385;            8   
    1463;  1296.6138;            9   
    1464;  1297.4890;            1   
    1465;  1298.3643;            3   
    1466;  1299.2396;            2   
    1467;  1300.1149;            2   
    1468;  1300.9901;            5   
    1469;  1301.8654;            1   
    1470;  1302.7407;            6   
    1471;  1303.6160;            1   
    1472;  1304.4912;            1   
    1473;  1305.3665;            2   
    1474;  1306.2418;            7   
    1475;  1307.1171;            3   
    1476;  1307.9923;            3   
    1477;  1308.8676;            1   
    1478;  1309.7429;            1   
    1479;  1310.6182;            2   
    1480;  1311.4934;            3   
    1481;  1312.3687;            1   
    1482;  1313.2440;            2   
    1483;  1314.1193;            3   
    1484;  1314.9945;            3   
    1485;  1315.8698;            1   
    1486;  1316.7451;            4   
    1487;  1317.6204;            2   
    1488;  1318.4956;            2   
    1489;  1319.3709;            3   
    1490;  1320.2462;            1   
    1491;  1321.1215;            2   
    1492;  1321.9967;            4   
    1493;  1322.8720;            6   
    1494;  1323.7473;            3   
    1495;  1324.6226;            1   
    1496;  1325.4978;            6   
    1497;  1326.3731;            2   
    1498;  1327.2484;            2   
    1499;  1328.1237;            7   
    1500;  1328.9989;            2   
    1501;  1329.8742;            1   
    1502;  1330.7495;            1   
    1503;  1331.6248;            2   
    1504;  1332.5000;            1   
    1505;  1333.3753;            1   
    1506;  1334.2506;            0   
    1507;  1335.1259;            3   
    1508;  1336.0011;            2   
    1509;  1336.8764;            0   
    1510;  1337.7517;            1   
    1511;  1338.6270;            3   
    1512;  1339.5022;            1   
    1513;  1340.3775;            5   
    1514;  1341.2528;            0   
    1515;  1342.1281;            2   
    1516;  1343.0033;            2   
    1517;  1343.8786;            1   
    1518;  1344.7539;            1   
    1519;  1345.6292;            4   
    1520;  1346.5044;            3   
    1521;  1347.3797;            1   
    1522;  1348.2550;            1   
    1523;  1349.1303;            1   
    1524;  1350.0055;            4   
    1525;  1350.8808;            3   
    1526;  1351.7561;            4   
    1527;  1352.6314;            4   
    1528;  1353.5066;            2   
    1529;  1354.3819;            1   
    1530;  1355.2572;            3   
    1531;  1356.1325;            2   
    1532;  1357.0077;            0   
    1533;  1357.8830;            3   
    1534;  1358.7583;            4   
    1535;  1359.6336;            3   
    1536;  1360.5088;            1   
    1537;  1361.3841;            0   
    1538;  1362.2594;            4   
    1539;  1363.1347;            2   
    1540;  1364.0099;            2   
    1541;  1364.8852;            2   
    1542;  1365.7605;            3   
    1543;  1366.6358;            1   
    1544;  1367.5110;            2   
    1545;  1368.3863;            3   
    1546;  1369.2616;            1   
    1547;  1370.1369;            0   
    1548;  1371.0121;            2   
    1549;  1371.8874;            1   
    1550;  1372.7627;            1   
    1551;  1373.6380;            2   
    1552;  1374.5132;            3   
    1553;  1375.3885;            3   
    1554;  1376.2638;            3   
    1555;  1377.1391;            2   
    1556;  1378.0143;            1   
    1557;  1378.8896;            0   
    1558;  1379.7649;            1   
    1559;  1380.6402;            2   
    1560;  1381.5154;            3   
    1561;  1382.3907;            1   
    1562;  1383.2660;            3   
    1563;  1384.1413;            1   
    1564;  1385.0165;            2   
    1565;  1385.8918;            1   
    1566;  1386.7671;            0   
    1567;  1387.6424;            5   
    1568;  1388.5176;            0   
    1569;  1389.3929;            3   
    1570;  1390.2682;            1   
    1571;  1391.1435;            1   
    1572;  1392.0187;            0   
    1573;  1392.8940;            0   
    1574;  1393.7693;            3   
    1575;  1394.6446;            2   
    1576;  1395.5198;            4   
    1577;  1396.3951;            4   
    1578;  1397.2704;            1   
    1579;  1398.1457;            1   
    1580;  1399.0209;            1   
    1581;  1399.8962;            1   
    1582;  1400.7715;            2   
    1583;  1401.6468;            1   
    1584;  1402.5220;            1   
    1585;  1403.3973;            1   
    1586;  1404.2726;            3   
    1587;  1405.1479;            1   
    1588;  1406.0231;            0   
    1589;  1406.8984;            2   
    1590;  1407.7737;            6   
    1591;  1408.6490;            2   
    1592;  1409.5242;            1   
    1593;  1410.3995;            1   
    1594;  1411.2748;            1   
    1595;  1412.1501;            4   
    1596;  1413.0253;            2   
    1597;  1413.9006;            0   
    1598;  1414.7759;            3   
    1599;  1415.6512;            2   
    1600;  1416.5264;            2   
    1601;  1417.4017;            2   
    1602;  1418.2770;            1   
    1603;  1419.1523;            1   
    1604;  1420.0275;            2   
    1605;  1420.9028;            1   
    1606;  1421.7781;            0   
    1607;  1422.6534;            2   
    1608;  1423.5286;            2   
    1609;  1424.4039;            1   
    1610;  1425.2792;            1   
    1611;  1426.1545;            2   
    1612;  1427.0297;            0   
    1613;  1427.9050;            1   
    1614;  1428.7803;            0   
    1615;  1429.6556;            3   
    1616;  1430.5308;            0   
    1617;  1431.4061;            2   
    1618;  1432.2814;            1   
    1619;  1433.1567;            2   
    1620;  1434.0319;            1   
    1621;  1434.9072;            3   
    1622;  1435.7825;            2   
    1623;  1436.6578;            4   
    1624;  1437.5330;            2   
    1625;  1438.4083;            2   
    1626;  1439.2836;            0   
    1627;  1440.1589;            1   
    1628;  1441.0341;            0   
    1629;  1441.9094;            1   
    1630;  1442.7847;            3   
    1631;  1443.6600;            1   
    1632;  1444.5352;            1   
    1633;  1445.4105;            1   
    1634;  1446.2858;            0   
    1635;  1447.1611;            0   
    1636;  1448.0363;            0   
    1637;  1448.9116;            2   
    1638;  1449.7869;            1   
    1639;  1450.6622;            3   
    1640;  1451.5374;            0   
    1641;  1452.4127;            2   
    1642;  1453.2880;            1   
    1643;  1454.1633;            1   
    1644;  1455.0385;            0   
    1645;  1455.9138;            1   
    1646;  1456.7891;            0   
    1647;  1457.6644;            0   
    1648;  1458.5396;            0   
    1649;  1459.4149;            1   
    1650;  1460.2902;            2   
    1651;  1461.1655;            2   
    1652;  1462.0407;            1   
    1653;  1462.9160;            0   
    1654;  1463.7913;            3   
    1655;  1464.6666;            1   
    1656;  1465.5418;            1   
    1657;  1466.4171;            2   
    1658;  1467.2924;            1   
    1659;  1468.1677;            0   
    1660;  1469.0429;            1   
    1661;  1469.9182;            1   
    1662;  1470.7935;            0   
    1663;  1471.6688;            1   
    1664;  1472.5440;            1   
    1665;  1473.4193;            1   
    1666;  1474.2946;            3   
    1667;  1475.1699;            0   
    1668;  1476.0451;            0   
    1669;  1476.9204;            0   
    1670;  1477.7957;            1   
    1671;  1478.6710;            1   
    1672;  1479.5462;            1   
    1673;  1480.4215;            0   
    1674;  1481.2968;            2   
    1675;  1482.1721;            2   
    1676;  1483.0473;            0   
    1677;  1483.9226;            0   
    1678;  1484.7979;            0   
    1679;  1485.6732;            1   
    1680;  1486.5484;            1   
    1681;  1487.4237;            0   
    1682;  1488.2990;            1   
    1683;  1489.1743;            3   
    1684;  1490.0495;            0   
    1685;  1490.9248;            2   
    1686;  1491.8001;            1   
    1687;  1492.6754;            1   
    1688;  1493.5506;            1   
    1689;  1494.4259;            1   
    1690;  1495.3012;            1   
    1691;  1496.1765;            1   
    1692;  1497.0517;            1   
    1693;  1497.9270;            1   
    1694;  1498.8023;            3   
    1695;  1499.6776;            2   
    1696;  1500.5528;            2   
    1697;  1501.4281;            0   
    1698;  1502.3034;            1   
    1699;  1503.1787;            1   
    1700;  1504.0539;            1   
    1701;  1504.9292;            1   
    1702;  1505.8045;            0   
    1703;  1506.6798;            0   
    1704;  1507.5550;            0   
    1705;  1508.4303;            2   
    1706;  1509.3056;            2   
    1707;  1510.1809;            1   
    1708;  1511.0561;            1   
    1709;  1511.9314;            1   
    1710;  1512.8067;            2   
    1711;  1513.6820;            2   
    1712;  1514.5572;            2   
    1713;  1515.4325;            1   
    1714;  1516.3078;            0   
    1715;  1517.1831;            0   
    1716;  1518.0583;            3   
    1717;  1518.9336;            0   
    1718;  1519.8089;            0   
    1719;  1520.6842;            0   
    1720;  1521.5594;            0   
    1721;  1522.4347;            1   
    1722;  1523.3100;            1   
    1723;  1524.1853;            2   
    1724;  1525.0605;            0   
    1725;  1525.9358;            0   
    1726;  1526.8111;            0   
    1727;  1527.6864;            4   
    1728;  1528.5616;            1   
    1729;  1529.4369;            2   
    1730;  1530.3122;            0   
    1731;  1531.1875;            2   
    1732;  1532.0627;            0   
    1733;  1532.9380;            1   
    1734;  1533.8133;            0   
    1735;  1534.6886;            1   
    1736;  1535.5638;            1   
    1737;  1536.4391;            1   
    1738;  1537.3144;            0   
    1739;  1538.1897;            1   
    1740;  1539.0649;            5   
    1741;  1539.9402;            0   
    1742;  1540.8155;            0   
    1743;  1541.6908;            0   
    1744;  1542.5660;            1   
    1745;  1543.4413;            3   
    1746;  1544.3166;            1   
    1747;  1545.1919;            3   
    1748;  1546.0671;            3   
    1749;  1546.9424;            0   
    1750;  1547.8177;            3   
    1751;  1548.6930;            0   
    1752;  1549.5682;            0   
    1753;  1550.4435;            3   
    1754;  1551.3188;            2   
    1755;  1552.1941;            1   
    1756;  1553.0693;            1   
    1757;  1553.9446;            3   
    1758;  1554.8199;            1   
    1759;  1555.6952;            1   
    1760;  1556.5704;            3   
    1761;  1557.4457;            0   
    1762;  1558.3210;            2   
    1763;  1559.1963;            4   
    1764;  1560.0715;            2   
    1765;  1560.9468;            2   
    1766;  1561.8221;            1   
    1767;  1562.6974;            1   
    1768;  1563.5726;            1   
    1769;  1564.4479;            0   
    1770;  1565.3232;            2   
    1771;  1566.1985;            0   
    1772;  1567.0737;            1   
    1773;  1567.9490;            4   
    1774;  1568.8243;            3   
    1775;  1569.6996;            2   
    1776;  1570.5748;            1   
    1777;  1571.4501;            2   
    1778;  1572.3254;            2   
    1779;  1573.2007;            0   
    1780;  1574.0759;            2   
    1781;  1574.9512;            1   
    1782;  1575.8265;            3   
    1783;  1576.7018;            4   
    1784;  1577.5770;            4   
    1785;  1578.4523;            3   
    1786;  1579.3276;            1   
    1787;  1580.2029;            3   
    1788;  1581.0781;            2   
    1789;  1581.9534;            1   
    1790;  1582.8287;            3   
    1791;  1583.7040;            2   
    1792;  1584.5792;            3   
    1793;  1585.4545;            1   
    1794;  1586.3298;            4   
    1795;  1587.2051;            2   
    1796;  1588.0803;            3   
    1797;  1588.9556;            2   
    1798;  1589.8309;            2   
    1799;  1590.7062;            4   
    1800;  1591.5814;            1   
    1801;  1592.4567;            4   
    1802;  1593.3320;            4   
    1803;  1594.2073;            6   
    1804;  1595.0825;            5   
    1805;  1595.9578;            2   
    1806;  1596.8331;            2   
    1807;  1597.7084;            3   
    1808;  1598.5836;            5   
    1809;  1599.4589;            3   
    1810;  1600.3342;            3   
    1811;  1601.2095;            3   
    1812;  1602.0847;            3   
    1813;  1602.9600;            4   
    1814;  1603.8353;            6   
    1815;  1604.7106;            2   
    1816;  1605.5858;            4   
    1817;  1606.4611;            1   
    1818;  1607.3364;            2   
    1819;  1608.2117;            6   
    1820;  1609.0869;            2   
    1821;  1609.9622;            4   
    1822;  1610.8375;            1   
    1823;  1611.7128;            2   
    1824;  1612.5880;            2   
    1825;  1613.4633;            5   
    1826;  1614.3386;            3   
    1827;  1615.2139;            2   
    1828;  1616.0891;            6   
    1829;  1616.9644;            1   
    1830;  1617.8397;            3   
    1831;  1618.7150;            2   
    1832;  1619.5902;            3   
    1833;  1620.4655;            5   
    1834;  1621.3408;            5   
    1835;  1622.2161;            1   
    1836;  1623.0913;            3   
    1837;  1623.9666;            1   
    1838;  1624.8419;            3   
    1839;  1625.7172;            4   
    1840;  1626.5924;            3   
    1841;  1627.4677;            3   
    1842;  1628.3430;            3   
    1843;  1629.2183;            5   
    1844;  1630.0935;            4   
    1845;  1630.9688;            5   
    1846;  1631.8441;            5   
    1847;  1632.7194;            1   
    1848;  1633.5946;            1   
    1849;  1634.4699;            2   
    1850;  1635.3452;            2   
    1851;  1636.2205;            5   
    1852;  1637.0957;            2   
    1853;  1637.9710;            1   
    1854;  1638.8463;            1   
    1855;  1639.7216;            3   
    1856;  1640.5968;            3   
    1857;  1641.4721;            3   
    1858;  1642.3474;            1   
    1859;  1643.2227;            0   
    1860;  1644.0979;            2   
    1861;  1644.9732;            4   
    1862;  1645.8485;            2   
    1863;  1646.7238;            1   
    1864;  1647.5990;            0   
    1865;  1648.4743;            2   
    1866;  1649.3496;            2   
    1867;  1650.2249;            3   
    1868;  1651.1001;            0   
    1869;  1651.9754;            6   
    1870;  1652.8507;            0   
    1871;  1653.7260;            1   
    1872;  1654.6012;            3   
    1873;  1655.4765;            0   
    1874;  1656.3518;            2   
    1875;  1657.2271;            0   
    1876;  1658.1023;            1   
    1877;  1658.9776;            1   
    1878;  1659.8529;            1   
    1879;  1660.7282;            0   
    1880;  1661.6034;            1   
    1881;  1662.4787;            1   
    1882;  1663.3540;            3   
    1883;  1664.2293;            0   
    1884;  1665.1045;            1   
    1885;  1665.9798;            1   
    1886;  1666.8551;            0   
    1887;  1667.7304;            0   
    1888;  1668.6056;            0   
    1889;  1669.4809;            1   
    1890;  1670.3562;            1   
    1891;  1671.2315;            0   
    1892;  1672.1067;            0   
    1893;  1672.9820;            2   
    1894;  1673.8573;            0   
    1895;  1674.7326;            1   
    1896;  1675.6078;            0   
    1897;  1676.4831;            0   
    1898;  1677.3584;            3   
    1899;  1678.2337;            0   
    1900;  1679.1089;            0   
    1901;  1679.9842;            1   
    1902;  1680.8595;            0   
    1903;  1681.7348;            1   
    1904;  1682.6100;            0   
    1905;  1683.4853;            0   
    1906;  1684.3606;            0   
    1907;  1685.2359;            2   
    1908;  1686.1111;            0   
    1909;  1686.9864;            1   
    1910;  1687.8617;            1   
    1911;  1688.7370;            1   
    1912;  1689.6122;            0   
    1913;  1690.4875;            1   
    1914;  1691.3628;            0   
    1915;  1692.2381;            0   
    1916;  1693.1133;            1   
    1917;  1693.9886;            0   
    1918;  1694.8639;            1   
    1919;  1695.7392;            2   
    1920;  1696.6144;            0   
    1921;  1697.4897;            0   
    1922;  1698.3650;            0   
    1923;  1699.2403;            1   
    1924;  1700.1155;            0   
    1925;  1700.9908;            0   
    1926;  1701.8661;            0   
    1927;  1702.7414;            1   
    1928;  1703.6166;            0   
    1929;  1704.4919;            0   
    1930;  1705.3672;            0   
    1931;  1706.2425;            0   
    1932;  1707.1177;            1   
    1933;  1707.9930;            1   
    1934;  1708.8683;            1   
    1935;  1709.7436;            1   
    1936;  1710.6188;            1   
    1937;  1711.4941;            1   
    1938;  1712.3694;            0   
    1939;  1713.2447;            0   
    1940;  1714.1199;            0   
    1941;  1714.9952;            1   
    1942;  1715.8705;            0   
    1943;  1716.7458;            0   
    1944;  1717.6210;            1   
    1945;  1718.4963;            0   
    1946;  1719.3716;            0   
    1947;  1720.2469;            0   
    1948;  1721.1221;            0   
    1949;  1721.9974;            0   
    1950;  1722.8727;            0   
    1951;  1723.7480;            0   
    1952;  1724.6232;            0   
    1953;  1725.4985;            0   
    1954;  1726.3738;            0   
    1955;  1727.2491;            0   
    1956;  1728.1243;            0   
    1957;  1728.9996;            0   
    1958;  1729.8749;            0   
    1959;  1730.7502;            0   
    1960;  1731.6254;            0   
    1961;  1732.5007;            0   
    1962;  1733.3760;            0   
    1963;  1734.2513;            0   
    1964;  1735.1265;            0   
    1965;  1736.0018;            0   
    1966;  1736.8771;            0   
    1967;  1737.7524;            0   
    1968;  1738.6276;            0   
    1969;  1739.5029;            0   
    1970;  1740.3782;            0   
    1971;  1741.2535;            0   
    1972;  1742.1287;            0   
    1973;  1743.0040;            0   
    1974;  1743.8793;            0   
    1975;  1744.7546;            0   
    1976;  1745.6298;            0   
    1977;  1746.5051;            0   
    1978;  1747.3804;            0   
    1979;  1748.2557;            0   
    1980;  1749.1309;            0   
    1981;  1750.0062;            0   
    1982;  1750.8815;            0   
    1983;  1751.7568;            0   
    1984;  1752.6320;            0   
    1985;  1753.5073;            0   
    1986;  1754.3826;            0   
    1987;  1755.2579;            0   
    1988;  1756.1331;            0   
    1989;  1757.0084;            0   
    1990;  1757.8837;            0   
    1991;  1758.7590;            0   
    1992;  1759.6342;            0   
    1993;  1760.5095;            0   
    1994;  1761.3848;            0   
    1995;  1762.2601;            0   
    1996;  1763.1353;            0   
    1997;  1764.0106;            0   
    1998;  1764.8859;            0   
    1999;  1765.7612;            0   
    2000;  1766.6364;            0   
    2001;  1767.5117;            0   
    2002;  1768.3870;            0   
    2003;  1769.2623;            0   
    2004;  1770.1375;            0   
    2005;  1771.0128;            0   
    2006;  1771.8881;            0   
    2007;  1772.7634;            0   
    2008;  1773.6386;            0   
    2009;  1774.5139;            0   
    2010;  1775.3892;            0   
    2011;  1776.2645;            0   
    2012;  1777.1397;            0   
    2013;  1778.0150;            0   
    2014;  1778.8903;            0   
    2015;  1779.7656;            0   
    2016;  1780.6408;            0   
    2017;  1781.5161;            0   
    2018;  1782.3914;            0   
    2019;  1783.2667;            0   
    2020;  1784.1419;            0   
    2021;  1785.0172;            0   
    2022;  1785.8925;            0   
    2023;  1786.7678;            0   
    2024;  1787.6430;            0   
    2025;  1788.5183;            0   
    2026;  1789.3936;            0   
    2027;  1790.2689;            0   
    2028;  1791.1441;            0   
    2029;  1792.0194;            0   
    2030;  1792.8947;            0   
    2031;  1793.7700;            0   
    2032;  1794.6452;            0   
    2033;  1795.5205;            0   
    2034;  1796.3958;            0   
    2035;  1797.2711;            0   
    2036;  1798.1463;            0   
    2037;  1799.0216;            0   
    2038;  1799.8969;            0   
    2039;  1800.7722;            0   
    2040;  1801.6474;            0   
    2041;  1802.5227;            0   
    2042;  1803.3980;            0   
    2043;  1804.2733;            0   
    2044;  1805.1485;            0   
    2045;  1806.0238;            0   
    2046;  1806.8991;            0   
    2047;  1807.7744;            0   
    2048;  1808.6496;            0   
ROI Nummer; Anfangskanal; Endkanal; Anfangsenergie keV ; Endenergie keV; Nettoimpulse; Bruttoimpulse; Untergrundimpulse
In den Daten wurden keine Linien gefunden
ROI Nummer; prozentualer Fehler der Lage; Lage keV; FWHM keV; FWTM keV; FWTM/FWHM Verhltnis; H/L Verhltnis
No Peak records found in data.
Name; Energie keV; Flags; Aktivitt uCi/Unit; Aktivittsfehler %; NWG uCi/Unit; MDA Error %
Es wurden keine Nuklidergebnisse gefunden.
Name; Erwartete Endergie keV; Gemessene Energie keV; Differenz von erwarteter keV; FWHM; Flags; Aktivitt uCi/Unit; Aktivittsfehler %
Es wurden keine Nuklidergebnisse gefunden.
