Kanal;   Energie(keV); Impulse
       1;    16.9617;          232   
       2;    17.8370;          242   
       3;    18.7122;          227   
       4;    19.5875;          235   
       5;    20.4628;          212   
       6;    21.3381;          200   
       7;    22.2133;          201   
       8;    23.0886;          187   
       9;    23.9639;          154   
      10;    24.8392;          205   
      11;    25.7144;          214   
      12;    26.5897;          180   
      13;    27.4650;          186   
      14;    28.3403;          180   
      15;    29.2155;          186   
      16;    30.0908;          169   
      17;    30.9661;          174   
      18;    31.8414;          176   
      19;    32.7166;          136   
      20;    33.5919;          156   
      21;    34.4672;          161   
      22;    35.3425;          145   
      23;    36.2177;          151   
      24;    37.0930;          137   
      25;    37.9683;          147   
      26;    38.8436;          144   
      27;    39.7188;          159   
      28;    40.5941;          146   
      29;    41.4694;          150   
      30;    42.3447;          146   
      31;    43.2199;          145   
      32;    44.0952;          176   
      33;    44.9705;          136   
      34;    45.8458;          128   
      35;    46.7210;          130   
      36;    47.5963;          140   
      37;    48.4716;          140   
      38;    49.3469;          131   
      39;    50.2221;          128   
      40;    51.0974;          125   
      41;    51.9727;          132   
      42;    52.8480;          142   
      43;    53.7232;          146   
      44;    54.5985;          154   
      45;    55.4738;          148   
      46;    56.3491;          137   
      47;    57.2243;          144   
      48;    58.0996;          143   
      49;    58.9749;          145   
      50;    59.8502;          113   
      51;    60.7254;          161   
      52;    61.6007;          182   
      53;    62.4760;          144   
      54;    63.3513;          188   
      55;    64.2265;          164   
      56;    65.1018;          166   
      57;    65.9771;          145   
      58;    66.8524;          162   
      59;    67.7276;          178   
      60;    68.6029;          175   
      61;    69.4782;          186   
      62;    70.3535;          176   
      63;    71.2287;          191   
      64;    72.1040;          182   
      65;    72.9793;          199   
      66;    73.8546;          210   
      67;    74.7298;          270   
      68;    75.6051;          337   
      69;    76.4804;          304   
      70;    77.3557;          423   
      71;    78.2309;          450   
      72;    79.1062;          315   
      73;    79.9815;          265   
      74;    80.8568;          243   
      75;    81.7320;          242   
      76;    82.6073;          259   
      77;    83.4826;          240   
      78;    84.3579;          265   
      79;    85.2331;          257   
      80;    86.1084;          274   
      81;    86.9837;          331   
      82;    87.8590;          429   
      83;    88.7342;          315   
      84;    89.6095;          323   
      85;    90.4848;          306   
      86;    91.3601;          255   
      87;    92.2353;          303   
      88;    93.1106;          257   
      89;    93.9859;          279   
      90;    94.8612;          284   
      91;    95.7364;          306   
      92;    96.6117;          285   
      93;    97.4870;          282   
      94;    98.3623;          289   
      95;    99.2375;          299   
      96;   100.1128;          268   
      97;   100.9881;          276   
      98;   101.8634;          315   
      99;   102.7386;          265   
     100;   103.6139;          301   
     101;   104.4892;          300   
     102;   105.3645;          276   
     103;   106.2397;          283   
     104;   107.1150;          263   
     105;   107.9903;          311   
     106;   108.8656;          323   
     107;   109.7408;          305   
     108;   110.6161;          256   
     109;   111.4914;          286   
     110;   112.3667;          305   
     111;   113.2419;          325   
     112;   114.1172;          299   
     113;   114.9925;          308   
     114;   115.8678;          287   
     115;   116.7430;          300   
     116;   117.6183;          317   
     117;   118.4936;          299   
     118;   119.3689;          303   
     119;   120.2441;          297   
     120;   121.1194;          307   
     121;   121.9947;          276   
     122;   122.8700;          274   
     123;   123.7452;          282   
     124;   124.6205;          331   
     125;   125.4958;          313   
     126;   126.3711;          291   
     127;   127.2463;          305   
     128;   128.1216;          293   
     129;   128.9969;          305   
     130;   129.8722;          311   
     131;   130.7474;          317   
     132;   131.6227;          301   
     133;   132.4980;          327   
     134;   133.3733;          292   
     135;   134.2485;          277   
     136;   135.1238;          305   
     137;   135.9991;          314   
     138;   136.8744;          302   
     139;   137.7496;          275   
     140;   138.6249;          289   
     141;   139.5002;          277   
     142;   140.3755;          279   
     143;   141.2507;          258   
     144;   142.1260;          245   
     145;   143.0013;          248   
     146;   143.8766;          248   
     147;   144.7518;          255   
     148;   145.6271;          256   
     149;   146.5024;          260   
     150;   147.3777;          283   
     151;   148.2529;          237   
     152;   149.1282;          262   
     153;   150.0035;          251   
     154;   150.8788;          236   
     155;   151.7540;          250   
     156;   152.6293;          270   
     157;   153.5046;          258   
     158;   154.3799;          235   
     159;   155.2551;          245   
     160;   156.1304;          230   
     161;   157.0057;          248   
     162;   157.8810;          223   
     163;   158.7562;          239   
     164;   159.6315;          249   
     165;   160.5068;          240   
     166;   161.3821;          231   
     167;   162.2573;          247   
     168;   163.1326;          210   
     169;   164.0079;          210   
     170;   164.8832;          217   
     171;   165.7584;          213   
     172;   166.6337;          209   
     173;   167.5090;          194   
     174;   168.3843;          248   
     175;   169.2595;          207   
     176;   170.1348;          222   
     177;   171.0101;          212   
     178;   171.8854;          205   
     179;   172.7606;          198   
     180;   173.6359;          216   
     181;   174.5112;          212   
     182;   175.3865;          192   
     183;   176.2617;          206   
     184;   177.1370;          220   
     185;   178.0123;          175   
     186;   178.8876;          208   
     187;   179.7628;          212   
     188;   180.6381;          194   
     189;   181.5134;          215   
     190;   182.3887;          188   
     191;   183.2639;          214   
     192;   184.1392;          163   
     193;   185.0145;          189   
     194;   185.8898;          182   
     195;   186.7650;          188   
     196;   187.6403;          196   
     197;   188.5156;          205   
     198;   189.3909;          209   
     199;   190.2661;          178   
     200;   191.1414;          214   
     201;   192.0167;          189   
     202;   192.8920;          168   
     203;   193.7672;          181   
     204;   194.6425;          182   
     205;   195.5178;          174   
     206;   196.3931;          184   
     207;   197.2683;          181   
     208;   198.1436;          178   
     209;   199.0189;          176   
     210;   199.8942;          169   
     211;   200.7694;          180   
     212;   201.6447;          183   
     213;   202.5200;          152   
     214;   203.3953;          171   
     215;   204.2705;          164   
     216;   205.1458;          173   
     217;   206.0211;          178   
     218;   206.8964;          155   
     219;   207.7716;          161   
     220;   208.6469;          145   
     221;   209.5222;          164   
     222;   210.3975;          145   
     223;   211.2727;          166   
     224;   212.1480;          161   
     225;   213.0233;          173   
     226;   213.8986;          154   
     227;   214.7738;          160   
     228;   215.6491;          179   
     229;   216.5244;          129   
     230;   217.3997;          138   
     231;   218.2749;          155   
     232;   219.1502;          135   
     233;   220.0255;          135   
     234;   220.9008;          142   
     235;   221.7760;          150   
     236;   222.6513;          134   
     237;   223.5266;          146   
     238;   224.4019;          150   
     239;   225.2771;          139   
     240;   226.1524;          136   
     241;   227.0277;          144   
     242;   227.9030;          129   
     243;   228.7782;          139   
     244;   229.6535;          144   
     245;   230.5288;          146   
     246;   231.4041;          133   
     247;   232.2793;          131   
     248;   233.1546;          127   
     249;   234.0299;          133   
     250;   234.9052;          145   
     251;   235.7804;          131   
     252;   236.6557;          145   
     253;   237.5310;          123   
     254;   238.4063;          147   
     255;   239.2815;          117   
     256;   240.1568;          138   
     257;   241.0321;          153   
     258;   241.9074;          202   
     259;   242.7826;          249   
     260;   243.6579;          172   
     261;   244.5332;          133   
     262;   245.4085;          137   
     263;   246.2837;          158   
     264;   247.1590;          151   
     265;   248.0343;          122   
     266;   248.9096;          114   
     267;   249.7848;           99   
     268;   250.6601;          104   
     269;   251.5354;          125   
     270;   252.4107;          125   
     271;   253.2859;          104   
     272;   254.1612;          112   
     273;   255.0365;          122   
     274;   255.9118;          117   
     275;   256.7870;          120   
     276;   257.6623;          110   
     277;   258.5376;          107   
     278;   259.4129;           88   
     279;   260.2881;          104   
     280;   261.1634;          105   
     281;   262.0387;          114   
     282;   262.9140;           97   
     283;   263.7892;          114   
     284;   264.6645;          102   
     285;   265.5398;          101   
     286;   266.4151;          119   
     287;   267.2903;           85   
     288;   268.1656;          106   
     289;   269.0409;           77   
     290;   269.9162;          101   
     291;   270.7914;          113   
     292;   271.6667;          102   
     293;   272.5420;          103   
     294;   273.4173;          101   
     295;   274.2925;          108   
     296;   275.1678;           99   
     297;   276.0431;          102   
     298;   276.9184;           97   
     299;   277.7936;           87   
     300;   278.6689;           91   
     301;   279.5442;          103   
     302;   280.4195;           79   
     303;   281.2947;           84   
     304;   282.1700;           97   
     305;   283.0453;           88   
     306;   283.9206;           76   
     307;   284.7958;           84   
     308;   285.6711;           88   
     309;   286.5464;           76   
     310;   287.4217;           85   
     311;   288.2969;           81   
     312;   289.1722;          106   
     313;   290.0475;           88   
     314;   290.9228;           83   
     315;   291.7980;           93   
     316;   292.6733;           80   
     317;   293.5486;           89   
     318;   294.4239;           81   
     319;   295.2991;           73   
     320;   296.1744;           91   
     321;   297.0497;           78   
     322;   297.9250;           90   
     323;   298.8002;          103   
     324;   299.6755;          118   
     325;   300.5508;          110   
     326;   301.4261;           75   
     327;   302.3013;           67   
     328;   303.1766;           97   
     329;   304.0519;           90   
     330;   304.9272;           83   
     331;   305.8024;           70   
     332;   306.6777;           95   
     333;   307.5530;           76   
     334;   308.4283;           72   
     335;   309.3035;           71   
     336;   310.1788;           71   
     337;   311.0541;           71   
     338;   311.9294;           92   
     339;   312.8046;           74   
     340;   313.6799;           70   
     341;   314.5552;           79   
     342;   315.4305;           57   
     343;   316.3057;           76   
     344;   317.1810;           66   
     345;   318.0563;           65   
     346;   318.9316;           74   
     347;   319.8068;           64   
     348;   320.6821;           61   
     349;   321.5574;           97   
     350;   322.4327;           73   
     351;   323.3079;           63   
     352;   324.1832;           82   
     353;   325.0585;           62   
     354;   325.9338;           63   
     355;   326.8090;           62   
     356;   327.6843;           65   
     357;   328.5596;           74   
     358;   329.4349;           62   
     359;   330.3101;           63   
     360;   331.1854;           76   
     361;   332.0607;           79   
     362;   332.9360;           76   
     363;   333.8112;           81   
     364;   334.6865;           52   
     365;   335.5618;           68   
     366;   336.4371;           60   
     367;   337.3123;           63   
     368;   338.1876;           69   
     369;   339.0629;           69   
     370;   339.9382;           76   
     371;   340.8134;           43   
     372;   341.6887;           79   
     373;   342.5640;          100   
     374;   343.4393;           77   
     375;   344.3145;           66   
     376;   345.1898;           60   
     377;   346.0651;           60   
     378;   346.9404;           67   
     379;   347.8156;           55   
     380;   348.6909;           59   
     381;   349.5662;           65   
     382;   350.4415;           58   
     383;   351.3167;           61   
     384;   352.1920;           48   
     385;   353.0673;           55   
     386;   353.9426;           59   
     387;   354.8178;           45   
     388;   355.6931;           96   
     389;   356.5684;          148   
     390;   357.4437;          126   
     391;   358.3189;           85   
     392;   359.1942;           76   
     393;   360.0695;           66   
     394;   360.9448;           56   
     395;   361.8200;           63   
     396;   362.6953;           58   
     397;   363.5706;           57   
     398;   364.4459;           54   
     399;   365.3211;           64   
     400;   366.1964;           46   
     401;   367.0717;           52   
     402;   367.9470;           49   
     403;   368.8222;           59   
     404;   369.6975;           48   
     405;   370.5728;           55   
     406;   371.4481;           51   
     407;   372.3233;           55   
     408;   373.1986;           59   
     409;   374.0739;           43   
     410;   374.9492;           54   
     411;   375.8244;           43   
     412;   376.6997;           55   
     413;   377.5750;           65   
     414;   378.4503;           64   
     415;   379.3255;           53   
     416;   380.2008;           60   
     417;   381.0761;           52   
     418;   381.9514;           57   
     419;   382.8266;           48   
     420;   383.7019;           51   
     421;   384.5772;           54   
     422;   385.4525;           55   
     423;   386.3277;           45   
     424;   387.2030;           35   
     425;   388.0783;           49   
     426;   388.9536;           55   
     427;   389.8288;           55   
     428;   390.7041;           44   
     429;   391.5794;           45   
     430;   392.4547;           47   
     431;   393.3299;           41   
     432;   394.2052;           69   
     433;   395.0805;           60   
     434;   395.9558;           53   
     435;   396.8310;           36   
     436;   397.7063;           46   
     437;   398.5816;           49   
     438;   399.4569;           50   
     439;   400.3321;           43   
     440;   401.2074;           42   
     441;   402.0827;           41   
     442;   402.9580;           43   
     443;   403.8332;           53   
     444;   404.7085;           39   
     445;   405.5838;           40   
     446;   406.4591;           44   
     447;   407.3343;           42   
     448;   408.2096;           57   
     449;   409.0849;           46   
     450;   409.9602;           37   
     451;   410.8354;           49   
     452;   411.7107;           29   
     453;   412.5860;           43   
     454;   413.4613;           38   
     455;   414.3365;           44   
     456;   415.2118;           58   
     457;   416.0871;           47   
     458;   416.9624;           54   
     459;   417.8376;           47   
     460;   418.7129;           45   
     461;   419.5882;           45   
     462;   420.4635;           44   
     463;   421.3387;           43   
     464;   422.2140;           36   
     465;   423.0893;           33   
     466;   423.9646;           35   
     467;   424.8398;           43   
     468;   425.7151;           40   
     469;   426.5904;           51   
     470;   427.4657;           39   
     471;   428.3409;           67   
     472;   429.2162;           39   
     473;   430.0915;           41   
     474;   430.9668;           48   
     475;   431.8420;           41   
     476;   432.7173;           43   
     477;   433.5926;           25   
     478;   434.4679;           36   
     479;   435.3431;           47   
     480;   436.2184;           29   
     481;   437.0937;           39   
     482;   437.9690;           42   
     483;   438.8442;           42   
     484;   439.7195;           31   
     485;   440.5948;           35   
     486;   441.4701;           38   
     487;   442.3453;           37   
     488;   443.2206;           58   
     489;   444.0959;           40   
     490;   444.9712;           53   
     491;   445.8464;           37   
     492;   446.7217;           39   
     493;   447.5970;           30   
     494;   448.4723;           41   
     495;   449.3475;           26   
     496;   450.2228;           51   
     497;   451.0981;           34   
     498;   451.9734;           38   
     499;   452.8486;           33   
     500;   453.7239;           36   
     501;   454.5992;           41   
     502;   455.4745;           35   
     503;   456.3497;           44   
     504;   457.2250;           38   
     505;   458.1003;           46   
     506;   458.9756;           45   
     507;   459.8508;           29   
     508;   460.7261;           38   
     509;   461.6014;           40   
     510;   462.4767;           43   
     511;   463.3519;           39   
     512;   464.2272;           40   
     513;   465.1025;           36   
     514;   465.9778;           32   
     515;   466.8530;           37   
     516;   467.7283;           38   
     517;   468.6036;           48   
     518;   469.4789;           52   
     519;   470.3541;           40   
     520;   471.2294;           37   
     521;   472.1047;           36   
     522;   472.9800;           31   
     523;   473.8552;           44   
     524;   474.7305;           34   
     525;   475.6058;           36   
     526;   476.4811;           44   
     527;   477.3563;           39   
     528;   478.2316;           36   
     529;   479.1069;           31   
     530;   479.9822;           38   
     531;   480.8574;           39   
     532;   481.7327;           36   
     533;   482.6080;           39   
     534;   483.4833;           34   
     535;   484.3585;           43   
     536;   485.2338;           37   
     537;   486.1091;           29   
     538;   486.9844;           34   
     539;   487.8596;           32   
     540;   488.7349;           25   
     541;   489.6102;           31   
     542;   490.4855;           35   
     543;   491.3607;           29   
     544;   492.2360;           36   
     545;   493.1113;           33   
     546;   493.9866;           28   
     547;   494.8618;           43   
     548;   495.7371;           32   
     549;   496.6124;           41   
     550;   497.4877;           26   
     551;   498.3629;           30   
     552;   499.2382;           34   
     553;   500.1135;           25   
     554;   500.9888;           38   
     555;   501.8640;           29   
     556;   502.7393;           27   
     557;   503.6146;           30   
     558;   504.4899;           22   
     559;   505.3651;           30   
     560;   506.2404;           33   
     561;   507.1157;           22   
     562;   507.9910;           32   
     563;   508.8662;           30   
     564;   509.7415;           35   
     565;   510.6168;           22   
     566;   511.4921;           28   
     567;   512.3673;           33   
     568;   513.2426;           31   
     569;   514.1179;           30   
     570;   514.9932;           50   
     571;   515.8684;           64   
     572;   516.7437;           81   
     573;   517.6190;           71   
     574;   518.4943;           40   
     575;   519.3695;           33   
     576;   520.2448;           43   
     577;   521.1201;           27   
     578;   521.9954;           26   
     579;   522.8706;           39   
     580;   523.7459;           22   
     581;   524.6212;           20   
     582;   525.4965;           33   
     583;   526.3717;           34   
     584;   527.2470;           27   
     585;   528.1223;           17   
     586;   528.9976;           20   
     587;   529.8728;           27   
     588;   530.7481;           37   
     589;   531.6234;           31   
     590;   532.4987;           39   
     591;   533.3739;           19   
     592;   534.2492;           18   
     593;   535.1245;           24   
     594;   535.9998;           30   
     595;   536.8750;           26   
     596;   537.7503;           23   
     597;   538.6256;           28   
     598;   539.5009;           27   
     599;   540.3761;           27   
     600;   541.2514;           23   
     601;   542.1267;           27   
     602;   543.0020;           26   
     603;   543.8772;           22   
     604;   544.7525;           23   
     605;   545.6278;           30   
     606;   546.5031;           28   
     607;   547.3783;           23   
     608;   548.2536;           29   
     609;   549.1289;           26   
     610;   550.0042;           28   
     611;   550.8794;           25   
     612;   551.7547;           21   
     613;   552.6300;           25   
     614;   553.5053;           35   
     615;   554.3805;           29   
     616;   555.2558;           27   
     617;   556.1311;           20   
     618;   557.0064;           29   
     619;   557.8816;           34   
     620;   558.7569;           36   
     621;   559.6322;           25   
     622;   560.5075;           32   
     623;   561.3827;           23   
     624;   562.2580;           24   
     625;   563.1333;           29   
     626;   564.0086;           27   
     627;   564.8838;           30   
     628;   565.7591;           19   
     629;   566.6344;           27   
     630;   567.5097;           30   
     631;   568.3849;           26   
     632;   569.2602;           26   
     633;   570.1355;           23   
     634;   571.0108;           34   
     635;   571.8860;           31   
     636;   572.7613;           25   
     637;   573.6366;           25   
     638;   574.5119;           25   
     639;   575.3871;           14   
     640;   576.2624;           28   
     641;   577.1377;           31   
     642;   578.0130;           20   
     643;   578.8882;           26   
     644;   579.7635;           24   
     645;   580.6388;           26   
     646;   581.5141;           17   
     647;   582.3893;           26   
     648;   583.2646;           21   
     649;   584.1399;           25   
     650;   585.0152;           35   
     651;   585.8904;           22   
     652;   586.7657;           26   
     653;   587.6410;           24   
     654;   588.5163;           39   
     655;   589.3915;           81   
     656;   590.2668;           84   
     657;   591.1421;           51   
     658;   592.0174;           28   
     659;   592.8926;           25   
     660;   593.7679;           23   
     661;   594.6432;           19   
     662;   595.5185;           25   
     663;   596.3937;           23   
     664;   597.2690;           17   
     665;   598.1443;           22   
     666;   599.0196;           25   
     667;   599.8948;           24   
     668;   600.7701;           24   
     669;   601.6454;           26   
     670;   602.5207;           23   
     671;   603.3959;           26   
     672;   604.2712;           13   
     673;   605.1465;           25   
     674;   606.0218;           22   
     675;   606.8970;           23   
     676;   607.7723;           25   
     677;   608.6476;           25   
     678;   609.5229;           19   
     679;   610.3981;           19   
     680;   611.2734;           18   
     681;   612.1487;           14   
     682;   613.0240;           21   
     683;   613.8992;           25   
     684;   614.7745;           43   
     685;   615.6498;          100   
     686;   616.5251;          120   
     687;   617.4003;           39   
     688;   618.2756;           22   
     689;   619.1509;           27   
     690;   620.0262;           20   
     691;   620.9014;           25   
     692;   621.7767;           15   
     693;   622.6520;           29   
     694;   623.5273;           19   
     695;   624.4025;           20   
     696;   625.2778;           21   
     697;   626.1531;           20   
     698;   627.0284;           15   
     699;   627.9036;           29   
     700;   628.7789;           22   
     701;   629.6542;           18   
     702;   630.5295;           19   
     703;   631.4047;           17   
     704;   632.2800;           21   
     705;   633.1553;           19   
     706;   634.0306;           22   
     707;   634.9058;           17   
     708;   635.7811;           23   
     709;   636.6564;           23   
     710;   637.5317;           16   
     711;   638.4069;           15   
     712;   639.2822;           20   
     713;   640.1575;           24   
     714;   641.0328;           11   
     715;   641.9080;           27   
     716;   642.7833;           27   
     717;   643.6586;           23   
     718;   644.5339;           17   
     719;   645.4091;           17   
     720;   646.2844;           22   
     721;   647.1597;           19   
     722;   648.0350;           30   
     723;   648.9102;           22   
     724;   649.7855;           19   
     725;   650.6608;           23   
     726;   651.5361;           16   
     727;   652.4113;           22   
     728;   653.2866;           28   
     729;   654.1619;           19   
     730;   655.0372;           17   
     731;   655.9124;           22   
     732;   656.7877;           21   
     733;   657.6630;           22   
     734;   658.5383;           22   
     735;   659.4135;           17   
     736;   660.2888;           27   
     737;   661.1641;           19   
     738;   662.0394;           24   
     739;   662.9146;           12   
     740;   663.7899;           20   
     741;   664.6652;           19   
     742;   665.5405;           15   
     743;   666.4157;           26   
     744;   667.2910;           18   
     745;   668.1663;           20   
     746;   669.0416;           31   
     747;   669.9168;           15   
     748;   670.7921;           20   
     749;   671.6674;           17   
     750;   672.5427;           30   
     751;   673.4179;           22   
     752;   674.2932;           26   
     753;   675.1685;           20   
     754;   676.0438;           23   
     755;   676.9190;           21   
     756;   677.7943;           27   
     757;   678.6696;           19   
     758;   679.5449;           19   
     759;   680.4201;           21   
     760;   681.2954;           19   
     761;   682.1707;           20   
     762;   683.0460;           21   
     763;   683.9212;           27   
     764;   684.7965;           19   
     765;   685.6718;           16   
     766;   686.5471;           27   
     767;   687.4223;           22   
     768;   688.2976;           20   
     769;   689.1729;           16   
     770;   690.0482;           16   
     771;   690.9234;           15   
     772;   691.7987;           17   
     773;   692.6740;           26   
     774;   693.5493;           23   
     775;   694.4245;           22   
     776;   695.2998;           18   
     777;   696.1751;           24   
     778;   697.0504;           17   
     779;   697.9256;           14   
     780;   698.8009;           20   
     781;   699.6762;           15   
     782;   700.5515;           19   
     783;   701.4267;           26   
     784;   702.3020;           14   
     785;   703.1773;           21   
     786;   704.0526;           13   
     787;   704.9278;           30   
     788;   705.8031;           14   
     789;   706.6784;           15   
     790;   707.5537;           27   
     791;   708.4289;           15   
     792;   709.3042;           25   
     793;   710.1795;           24   
     794;   711.0548;           19   
     795;   711.9300;           11   
     796;   712.8053;           18   
     797;   713.6806;           19   
     798;   714.5559;           14   
     799;   715.4311;           19   
     800;   716.3064;           15   
     801;   717.1817;           20   
     802;   718.0570;           21   
     803;   718.9322;           25   
     804;   719.8075;           23   
     805;   720.6828;           10   
     806;   721.5581;           19   
     807;   722.4333;           30   
     808;   723.3086;           17   
     809;   724.1839;           22   
     810;   725.0592;           11   
     811;   725.9344;           20   
     812;   726.8097;           17   
     813;   727.6850;           26   
     814;   728.5603;           24   
     815;   729.4355;           15   
     816;   730.3108;           18   
     817;   731.1861;           21   
     818;   732.0614;           10   
     819;   732.9366;           15   
     820;   733.8119;           19   
     821;   734.6872;           34   
     822;   735.5625;           21   
     823;   736.4377;           23   
     824;   737.3130;           13   
     825;   738.1883;           12   
     826;   739.0636;           18   
     827;   739.9388;           14   
     828;   740.8141;           15   
     829;   741.6894;           25   
     830;   742.5647;           17   
     831;   743.4399;           17   
     832;   744.3152;           23   
     833;   745.1905;           17   
     834;   746.0658;           13   
     835;   746.9410;           19   
     836;   747.8163;           24   
     837;   748.6916;           17   
     838;   749.5669;           19   
     839;   750.4421;           17   
     840;   751.3174;           25   
     841;   752.1927;           16   
     842;   753.0680;           20   
     843;   753.9432;           21   
     844;   754.8185;           19   
     845;   755.6938;           13   
     846;   756.5691;           10   
     847;   757.4443;           14   
     848;   758.3196;           22   
     849;   759.1949;           14   
     850;   760.0702;           21   
     851;   760.9454;           13   
     852;   761.8207;           20   
     853;   762.6960;           19   
     854;   763.5713;           29   
     855;   764.4465;           14   
     856;   765.3218;           17   
     857;   766.1971;           16   
     858;   767.0724;           17   
     859;   767.9476;           15   
     860;   768.8229;           16   
     861;   769.6982;           22   
     862;   770.5735;           20   
     863;   771.4487;           20   
     864;   772.3240;           13   
     865;   773.1993;           17   
     866;   774.0746;           24   
     867;   774.9498;           15   
     868;   775.8251;           23   
     869;   776.7004;           27   
     870;   777.5757;           14   
     871;   778.4509;           21   
     872;   779.3262;           22   
     873;   780.2015;           17   
     874;   781.0768;           16   
     875;   781.9520;           21   
     876;   782.8273;           14   
     877;   783.7026;           22   
     878;   784.5779;           21   
     879;   785.4531;           14   
     880;   786.3284;           16   
     881;   787.2037;           16   
     882;   788.0790;           25   
     883;   788.9542;           18   
     884;   789.8295;           15   
     885;   790.7048;           17   
     886;   791.5801;           14   
     887;   792.4553;           16   
     888;   793.3306;           22   
     889;   794.2059;           25   
     890;   795.0812;           27   
     891;   795.9564;           18   
     892;   796.8317;           25   
     893;   797.7070;           15   
     894;   798.5823;           12   
     895;   799.4575;           18   
     896;   800.3328;           17   
     897;   801.2081;           23   
     898;   802.0834;           21   
     899;   802.9586;           19   
     900;   803.8339;           24   
     901;   804.7092;           21   
     902;   805.5845;           18   
     903;   806.4597;           19   
     904;   807.3350;           13   
     905;   808.2103;           17   
     906;   809.0856;           17   
     907;   809.9608;           15   
     908;   810.8361;           26   
     909;   811.7114;           19   
     910;   812.5867;           13   
     911;   813.4619;           14   
     912;   814.3372;           12   
     913;   815.2125;           18   
     914;   816.0878;           14   
     915;   816.9631;           16   
     916;   817.8383;           19   
     917;   818.7136;           10   
     918;   819.5889;           15   
     919;   820.4642;           13   
     920;   821.3394;           13   
     921;   822.2147;           16   
     922;   823.0900;           13   
     923;   823.9653;           20   
     924;   824.8405;           12   
     925;   825.7158;           18   
     926;   826.5911;           10   
     927;   827.4664;           17   
     928;   828.3416;            9   
     929;   829.2169;           15   
     930;   830.0922;           17   
     931;   830.9675;           18   
     932;   831.8427;           14   
     933;   832.7180;           16   
     934;   833.5933;           16   
     935;   834.4686;           15   
     936;   835.3438;           12   
     937;   836.2191;           17   
     938;   837.0944;           11   
     939;   837.9697;           14   
     940;   838.8449;           22   
     941;   839.7202;            9   
     942;   840.5955;           18   
     943;   841.4708;            7   
     944;   842.3460;           17   
     945;   843.2213;           12   
     946;   844.0966;           16   
     947;   844.9719;           19   
     948;   845.8471;           16   
     949;   846.7224;           16   
     950;   847.5977;           13   
     951;   848.4730;           20   
     952;   849.3482;           17   
     953;   850.2235;           18   
     954;   851.0988;           11   
     955;   851.9741;           20   
     956;   852.8493;           17   
     957;   853.7246;           18   
     958;   854.5999;           17   
     959;   855.4752;           18   
     960;   856.3504;           13   
     961;   857.2257;           14   
     962;   858.1010;            9   
     963;   858.9763;           16   
     964;   859.8515;           16   
     965;   860.7268;           14   
     966;   861.6021;           14   
     967;   862.4774;           10   
     968;   863.3526;           14   
     969;   864.2279;           17   
     970;   865.1032;           18   
     971;   865.9785;            7   
     972;   866.8537;           17   
     973;   867.7290;           14   
     974;   868.6043;           17   
     975;   869.4796;           28   
     976;   870.3548;           12   
     977;   871.2301;           10   
     978;   872.1054;           14   
     979;   872.9807;           12   
     980;   873.8559;           21   
     981;   874.7312;           17   
     982;   875.6065;           21   
     983;   876.4818;           17   
     984;   877.3570;           11   
     985;   878.2323;           18   
     986;   879.1076;           16   
     987;   879.9829;           12   
     988;   880.8581;            5   
     989;   881.7334;            8   
     990;   882.6087;           16   
     991;   883.4840;           10   
     992;   884.3592;           10   
     993;   885.2345;           10   
     994;   886.1098;           19   
     995;   886.9851;           16   
     996;   887.8603;           14   
     997;   888.7356;           10   
     998;   889.6109;           10   
     999;   890.4862;            9   
    1000;   891.3614;           11   
    1001;   892.2367;           13   
    1002;   893.1120;            9   
    1003;   893.9873;           15   
    1004;   894.8625;           14   
    1005;   895.7378;           14   
    1006;   896.6131;           13   
    1007;   897.4884;           14   
    1008;   898.3636;           24   
    1009;   899.2389;           15   
    1010;   900.1142;           24   
    1011;   900.9895;           14   
    1012;   901.8647;           13   
    1013;   902.7400;           16   
    1014;   903.6153;           11   
    1015;   904.4906;           11   
    1016;   905.3658;           11   
    1017;   906.2411;            9   
    1018;   907.1164;           15   
    1019;   907.9917;           11   
    1020;   908.8669;           14   
    1021;   909.7422;           21   
    1022;   910.6175;           18   
    1023;   911.4928;           19   
    1024;   912.3680;           21   
    1025;   913.2433;           11   
    1026;   914.1186;           14   
    1027;   914.9939;           17   
    1028;   915.8691;           11   
    1029;   916.7444;            7   
    1030;   917.6197;            7   
    1031;   918.4950;           23   
    1032;   919.3702;           48   
    1033;   920.2455;           67   
    1034;   921.1208;           50   
    1035;   921.9961;           19   
    1036;   922.8713;           19   
    1037;   923.7466;           12   
    1038;   924.6219;            8   
    1039;   925.4972;           16   
    1040;   926.3724;           12   
    1041;   927.2477;           12   
    1042;   928.1230;           12   
    1043;   928.9983;           12   
    1044;   929.8735;           13   
    1045;   930.7488;           11   
    1046;   931.6241;           17   
    1047;   932.4994;           13   
    1048;   933.3746;            7   
    1049;   934.2499;           16   
    1050;   935.1252;           13   
    1051;   936.0005;           14   
    1052;   936.8757;            7   
    1053;   937.7510;           12   
    1054;   938.6263;           16   
    1055;   939.5016;           17   
    1056;   940.3768;           13   
    1057;   941.2521;           12   
    1058;   942.1274;           17   
    1059;   943.0027;           24   
    1060;   943.8779;           17   
    1061;   944.7532;            9   
    1062;   945.6285;           15   
    1063;   946.5038;           12   
    1064;   947.3790;            9   
    1065;   948.2543;           10   
    1066;   949.1296;           16   
    1067;   950.0049;           14   
    1068;   950.8801;           14   
    1069;   951.7554;           13   
    1070;   952.6307;            7   
    1071;   953.5060;           10   
    1072;   954.3812;           12   
    1073;   955.2565;           14   
    1074;   956.1318;           12   
    1075;   957.0071;           11   
    1076;   957.8823;           23   
    1077;   958.7576;           12   
    1078;   959.6329;           15   
    1079;   960.5082;           11   
    1080;   961.3834;           10   
    1081;   962.2587;            8   
    1082;   963.1340;           13   
    1083;   964.0093;           14   
    1084;   964.8845;           17   
    1085;   965.7598;           14   
    1086;   966.6351;           17   
    1087;   967.5104;           13   
    1088;   968.3856;           14   
    1089;   969.2609;            8   
    1090;   970.1362;           10   
    1091;   971.0115;           15   
    1092;   971.8867;           10   
    1093;   972.7620;           18   
    1094;   973.6373;           22   
    1095;   974.5126;           23   
    1096;   975.3878;            9   
    1097;   976.2631;           18   
    1098;   977.1384;           18   
    1099;   978.0137;           34   
    1100;   978.8889;           39   
    1101;   979.7642;           16   
    1102;   980.6395;           17   
    1103;   981.5148;           13   
    1104;   982.3900;           17   
    1105;   983.2653;           14   
    1106;   984.1406;           12   
    1107;   985.0159;           12   
    1108;   985.8911;           14   
    1109;   986.7664;           14   
    1110;   987.6417;           10   
    1111;   988.5170;           11   
    1112;   989.3922;            8   
    1113;   990.2675;           11   
    1114;   991.1428;            9   
    1115;   992.0181;            6   
    1116;   992.8933;            8   
    1117;   993.7686;           15   
    1118;   994.6439;            8   
    1119;   995.5192;           18   
    1120;   996.3944;           13   
    1121;   997.2697;           20   
    1122;   998.1450;           10   
    1123;   999.0203;           10   
    1124;   999.8955;           14   
    1125;  1000.7708;           17   
    1126;  1001.6461;           16   
    1127;  1002.5214;           12   
    1128;  1003.3966;           15   
    1129;  1004.2719;            7   
    1130;  1005.1472;           19   
    1131;  1006.0225;           13   
    1132;  1006.8977;           16   
    1133;  1007.7730;           12   
    1134;  1008.6483;           16   
    1135;  1009.5236;           13   
    1136;  1010.3988;            8   
    1137;  1011.2741;            9   
    1138;  1012.1494;           19   
    1139;  1013.0247;           14   
    1140;  1013.8999;           15   
    1141;  1014.7752;           11   
    1142;  1015.6505;            8   
    1143;  1016.5258;           14   
    1144;  1017.4010;           11   
    1145;  1018.2763;           12   
    1146;  1019.1516;           10   
    1147;  1020.0269;           11   
    1148;  1020.9021;           15   
    1149;  1021.7774;            7   
    1150;  1022.6527;           16   
    1151;  1023.5280;            9   
    1152;  1024.4032;           15   
    1153;  1025.2785;           14   
    1154;  1026.1538;           15   
    1155;  1027.0291;            7   
    1156;  1027.9043;           15   
    1157;  1028.7796;           10   
    1158;  1029.6549;            8   
    1159;  1030.5302;           13   
    1160;  1031.4054;           12   
    1161;  1032.2807;            9   
    1162;  1033.1560;           11   
    1163;  1034.0313;           18   
    1164;  1034.9065;            7   
    1165;  1035.7818;           15   
    1166;  1036.6571;            8   
    1167;  1037.5324;           10   
    1168;  1038.4076;           12   
    1169;  1039.2829;            9   
    1170;  1040.1582;           12   
    1171;  1041.0335;           12   
    1172;  1041.9087;           20   
    1173;  1042.7840;           13   
    1174;  1043.6593;           11   
    1175;  1044.5346;            8   
    1176;  1045.4098;           17   
    1177;  1046.2851;           12   
    1178;  1047.1604;           13   
    1179;  1048.0357;           14   
    1180;  1048.9109;           13   
    1181;  1049.7862;            5   
    1182;  1050.6615;            8   
    1183;  1051.5368;            8   
    1184;  1052.4120;            8   
    1185;  1053.2873;           10   
    1186;  1054.1626;           10   
    1187;  1055.0379;           16   
    1188;  1055.9131;           12   
    1189;  1056.7884;            8   
    1190;  1057.6637;           11   
    1191;  1058.5390;            9   
    1192;  1059.4142;           11   
    1193;  1060.2895;           12   
    1194;  1061.1648;           16   
    1195;  1062.0401;           15   
    1196;  1062.9153;           12   
    1197;  1063.7906;           14   
    1198;  1064.6659;           11   
    1199;  1065.5412;           22   
    1200;  1066.4164;           15   
    1201;  1067.2917;            7   
    1202;  1068.1670;           17   
    1203;  1069.0423;           12   
    1204;  1069.9175;           12   
    1205;  1070.7928;           10   
    1206;  1071.6681;           12   
    1207;  1072.5434;           13   
    1208;  1073.4186;            8   
    1209;  1074.2939;            5   
    1210;  1075.1692;            7   
    1211;  1076.0445;           13   
    1212;  1076.9197;           15   
    1213;  1077.7950;           11   
    1214;  1078.6703;            7   
    1215;  1079.5456;            8   
    1216;  1080.4208;           13   
    1217;  1081.2961;            9   
    1218;  1082.1714;           11   
    1219;  1083.0467;           14   
    1220;  1083.9219;           11   
    1221;  1084.7972;           12   
    1222;  1085.6725;           13   
    1223;  1086.5478;           22   
    1224;  1087.4230;           13   
    1225;  1088.2983;           17   
    1226;  1089.1736;           20   
    1227;  1090.0489;            9   
    1228;  1090.9241;           12   
    1229;  1091.7994;           13   
    1230;  1092.6747;           13   
    1231;  1093.5500;           10   
    1232;  1094.4252;           11   
    1233;  1095.3005;           11   
    1234;  1096.1758;           15   
    1235;  1097.0511;           20   
    1236;  1097.9263;           11   
    1237;  1098.8016;           10   
    1238;  1099.6769;           12   
    1239;  1100.5522;           16   
    1240;  1101.4274;            9   
    1241;  1102.3027;           14   
    1242;  1103.1780;           15   
    1243;  1104.0533;           13   
    1244;  1104.9285;            7   
    1245;  1105.8038;            8   
    1246;  1106.6791;           12   
    1247;  1107.5544;           10   
    1248;  1108.4296;            7   
    1249;  1109.3049;            9   
    1250;  1110.1802;           10   
    1251;  1111.0555;           12   
    1252;  1111.9307;            9   
    1253;  1112.8060;           17   
    1254;  1113.6813;            9   
    1255;  1114.5566;           12   
    1256;  1115.4318;            8   
    1257;  1116.3071;            4   
    1258;  1117.1824;           14   
    1259;  1118.0577;           10   
    1260;  1118.9329;            6   
    1261;  1119.8082;           10   
    1262;  1120.6835;            6   
    1263;  1121.5588;           19   
    1264;  1122.4340;           17   
    1265;  1123.3093;           13   
    1266;  1124.1846;           14   
    1267;  1125.0599;            9   
    1268;  1125.9351;           19   
    1269;  1126.8104;           11   
    1270;  1127.6857;           12   
    1271;  1128.5610;           12   
    1272;  1129.4362;           22   
    1273;  1130.3115;           41   
    1274;  1131.1868;           28   
    1275;  1132.0621;           18   
    1276;  1132.9373;           10   
    1277;  1133.8126;           13   
    1278;  1134.6879;            9   
    1279;  1135.5632;            7   
    1280;  1136.4384;            8   
    1281;  1137.3137;           15   
    1282;  1138.1890;            4   
    1283;  1139.0643;           10   
    1284;  1139.9395;            8   
    1285;  1140.8148;            9   
    1286;  1141.6901;            9   
    1287;  1142.5654;           10   
    1288;  1143.4406;            7   
    1289;  1144.3159;            8   
    1290;  1145.1912;            8   
    1291;  1146.0665;           12   
    1292;  1146.9417;           11   
    1293;  1147.8170;           12   
    1294;  1148.6923;           13   
    1295;  1149.5676;           12   
    1296;  1150.4428;           16   
    1297;  1151.3181;           10   
    1298;  1152.1934;           16   
    1299;  1153.0687;           19   
    1300;  1153.9439;            9   
    1301;  1154.8192;           16   
    1302;  1155.6945;           18   
    1303;  1156.5698;           10   
    1304;  1157.4450;           13   
    1305;  1158.3203;           11   
    1306;  1159.1956;           11   
    1307;  1160.0709;           10   
    1308;  1160.9461;           11   
    1309;  1161.8214;           12   
    1310;  1162.6967;           11   
    1311;  1163.5720;            6   
    1312;  1164.4472;           18   
    1313;  1165.3225;           15   
    1314;  1166.1978;           13   
    1315;  1167.0731;           10   
    1316;  1167.9483;           14   
    1317;  1168.8236;           10   
    1318;  1169.6989;           12   
    1319;  1170.5742;           11   
    1320;  1171.4494;            6   
    1321;  1172.3247;           20   
    1322;  1173.2000;           11   
    1323;  1174.0753;            9   
    1324;  1174.9505;           16   
    1325;  1175.8258;           14   
    1326;  1176.7011;           15   
    1327;  1177.5764;           12   
    1328;  1178.4516;           15   
    1329;  1179.3269;           11   
    1330;  1180.2022;           13   
    1331;  1181.0775;           11   
    1332;  1181.9527;            9   
    1333;  1182.8280;            9   
    1334;  1183.7033;           15   
    1335;  1184.5786;           10   
    1336;  1185.4538;           15   
    1337;  1186.3291;           13   
    1338;  1187.2044;           15   
    1339;  1188.0797;           12   
    1340;  1188.9549;           12   
    1341;  1189.8302;           12   
    1342;  1190.7055;           16   
    1343;  1191.5808;           14   
    1344;  1192.4560;            7   
    1345;  1193.3313;           15   
    1346;  1194.2066;            9   
    1347;  1195.0819;            8   
    1348;  1195.9571;           13   
    1349;  1196.8324;           13   
    1350;  1197.7077;           11   
    1351;  1198.5830;            9   
    1352;  1199.4582;           14   
    1353;  1200.3335;           13   
    1354;  1201.2088;           11   
    1355;  1202.0841;            7   
    1356;  1202.9593;            7   
    1357;  1203.8346;            9   
    1358;  1204.7099;            8   
    1359;  1205.5852;           17   
    1360;  1206.4604;           11   
    1361;  1207.3357;            6   
    1362;  1208.2110;            8   
    1363;  1209.0863;            6   
    1364;  1209.9615;           15   
    1365;  1210.8368;           17   
    1366;  1211.7121;            7   
    1367;  1212.5874;           10   
    1368;  1213.4626;           19   
    1369;  1214.3379;            6   
    1370;  1215.2132;           21   
    1371;  1216.0885;           17   
    1372;  1216.9637;           13   
    1373;  1217.8390;           15   
    1374;  1218.7143;           16   
    1375;  1219.5896;            9   
    1376;  1220.4648;           10   
    1377;  1221.3401;            6   
    1378;  1222.2154;            7   
    1379;  1223.0907;           14   
    1380;  1223.9659;           14   
    1381;  1224.8412;           11   
    1382;  1225.7165;           10   
    1383;  1226.5918;           15   
    1384;  1227.4670;            7   
    1385;  1228.3423;            9   
    1386;  1229.2176;            7   
    1387;  1230.0929;           10   
    1388;  1230.9681;           14   
    1389;  1231.8434;            8   
    1390;  1232.7187;           17   
    1391;  1233.5940;            6   
    1392;  1234.4692;           13   
    1393;  1235.3445;           11   
    1394;  1236.2198;           10   
    1395;  1237.0951;           10   
    1396;  1237.9703;           12   
    1397;  1238.8456;           13   
    1398;  1239.7209;           12   
    1399;  1240.5962;           18   
    1400;  1241.4714;           15   
    1401;  1242.3467;           16   
    1402;  1243.2220;           15   
    1403;  1244.0973;           10   
    1404;  1244.9725;           17   
    1405;  1245.8478;            7   
    1406;  1246.7231;            7   
    1407;  1247.5984;           10   
    1408;  1248.4736;           28   
    1409;  1249.3489;           21   
    1410;  1250.2242;           15   
    1411;  1251.0995;           13   
    1412;  1251.9747;           16   
    1413;  1252.8500;           21   
    1414;  1253.7253;           15   
    1415;  1254.6006;            6   
    1416;  1255.4758;            8   
    1417;  1256.3511;           10   
    1418;  1257.2264;           14   
    1419;  1258.1017;           12   
    1420;  1258.9769;            7   
    1421;  1259.8522;           10   
    1422;  1260.7275;           15   
    1423;  1261.6028;           11   
    1424;  1262.4780;           11   
    1425;  1263.3533;            8   
    1426;  1264.2286;            9   
    1427;  1265.1039;            7   
    1428;  1265.9791;           13   
    1429;  1266.8544;            8   
    1430;  1267.7297;            6   
    1431;  1268.6050;           10   
    1432;  1269.4802;            4   
    1433;  1270.3555;            6   
    1434;  1271.2308;           16   
    1435;  1272.1061;            5   
    1436;  1272.9813;            7   
    1437;  1273.8566;           11   
    1438;  1274.7319;            9   
    1439;  1275.6072;           12   
    1440;  1276.4824;            6   
    1441;  1277.3577;            5   
    1442;  1278.2330;            5   
    1443;  1279.1083;           10   
    1444;  1279.9835;            9   
    1445;  1280.8588;            7   
    1446;  1281.7341;           12   
    1447;  1282.6094;           11   
    1448;  1283.4846;            6   
    1449;  1284.3599;            5   
    1450;  1285.2352;            8   
    1451;  1286.1105;            3   
    1452;  1286.9857;           14   
    1453;  1287.8610;           11   
    1454;  1288.7363;            8   
    1455;  1289.6116;            4   
    1456;  1290.4868;            6   
    1457;  1291.3621;            9   
    1458;  1292.2374;           14   
    1459;  1293.1127;            7   
    1460;  1293.9879;           11   
    1461;  1294.8632;            7   
    1462;  1295.7385;           12   
    1463;  1296.6138;            4   
    1464;  1297.4890;            8   
    1465;  1298.3643;            5   
    1466;  1299.2396;            9   
    1467;  1300.1149;            7   
    1468;  1300.9901;            8   
    1469;  1301.8654;            5   
    1470;  1302.7407;           10   
    1471;  1303.6160;            5   
    1472;  1304.4912;           11   
    1473;  1305.3665;            6   
    1474;  1306.2418;           10   
    1475;  1307.1171;            6   
    1476;  1307.9923;            3   
    1477;  1308.8676;           10   
    1478;  1309.7429;            6   
    1479;  1310.6182;            4   
    1480;  1311.4934;            5   
    1481;  1312.3687;            4   
    1482;  1313.2440;            7   
    1483;  1314.1193;            6   
    1484;  1314.9945;            6   
    1485;  1315.8698;            6   
    1486;  1316.7451;            7   
    1487;  1317.6204;            7   
    1488;  1318.4956;            2   
    1489;  1319.3709;           13   
    1490;  1320.2462;            4   
    1491;  1321.1215;           10   
    1492;  1321.9967;            2   
    1493;  1322.8720;            8   
    1494;  1323.7473;            7   
    1495;  1324.6226;            5   
    1496;  1325.4978;            7   
    1497;  1326.3731;            4   
    1498;  1327.2484;           10   
    1499;  1328.1237;            8   
    1500;  1328.9989;            6   
    1501;  1329.8742;            5   
    1502;  1330.7495;            6   
    1503;  1331.6248;           10   
    1504;  1332.5000;            7   
    1505;  1333.3753;            6   
    1506;  1334.2506;            5   
    1507;  1335.1259;            6   
    1508;  1336.0011;           10   
    1509;  1336.8764;            2   
    1510;  1337.7517;            6   
    1511;  1338.6270;           10   
    1512;  1339.5022;           15   
    1513;  1340.3775;            5   
    1514;  1341.2528;            6   
    1515;  1342.1281;            6   
    1516;  1343.0033;            6   
    1517;  1343.8786;            7   
    1518;  1344.7539;            3   
    1519;  1345.6292;           11   
    1520;  1346.5044;            7   
    1521;  1347.3797;            4   
    1522;  1348.2550;            4   
    1523;  1349.1303;            3   
    1524;  1350.0055;            3   
    1525;  1350.8808;            8   
    1526;  1351.7561;            4   
    1527;  1352.6314;            5   
    1528;  1353.5066;            7   
    1529;  1354.3819;            5   
    1530;  1355.2572;            4   
    1531;  1356.1325;            4   
    1532;  1357.0077;            4   
    1533;  1357.8830;            4   
    1534;  1358.7583;            3   
    1535;  1359.6336;            6   
    1536;  1360.5088;            6   
    1537;  1361.3841;            3   
    1538;  1362.2594;            1   
    1539;  1363.1347;            5   
    1540;  1364.0099;            8   
    1541;  1364.8852;            2   
    1542;  1365.7605;            3   
    1543;  1366.6358;            2   
    1544;  1367.5110;            7   
    1545;  1368.3863;            6   
    1546;  1369.2616;            3   
    1547;  1370.1369;            6   
    1548;  1371.0121;            1   
    1549;  1371.8874;            8   
    1550;  1372.7627;            2   
    1551;  1373.6380;            5   
    1552;  1374.5132;            3   
    1553;  1375.3885;            4   
    1554;  1376.2638;            5   
    1555;  1377.1391;            3   
    1556;  1378.0143;            1   
    1557;  1378.8896;            2   
    1558;  1379.7649;            6   
    1559;  1380.6402;            2   
    1560;  1381.5154;            4   
    1561;  1382.3907;            2   
    1562;  1383.2660;            3   
    1563;  1384.1413;            4   
    1564;  1385.0165;            2   
    1565;  1385.8918;            4   
    1566;  1386.7671;            2   
    1567;  1387.6424;            4   
    1568;  1388.5176;            5   
    1569;  1389.3929;           13   
    1570;  1390.2682;           12   
    1571;  1391.1435;            6   
    1572;  1392.0187;            5   
    1573;  1392.8940;            1   
    1574;  1393.7693;            6   
    1575;  1394.6446;            2   
    1576;  1395.5198;            4   
    1577;  1396.3951;            5   
    1578;  1397.2704;            6   
    1579;  1398.1457;            4   
    1580;  1399.0209;            5   
    1581;  1399.8962;            5   
    1582;  1400.7715;            0   
    1583;  1401.6468;            7   
    1584;  1402.5220;            5   
    1585;  1403.3973;            3   
    1586;  1404.2726;            7   
    1587;  1405.1479;            2   
    1588;  1406.0231;            4   
    1589;  1406.8984;            5   
    1590;  1407.7737;            1   
    1591;  1408.6490;            4   
    1592;  1409.5242;            3   
    1593;  1410.3995;            6   
    1594;  1411.2748;            5   
    1595;  1412.1501;            7   
    1596;  1413.0253;           12   
    1597;  1413.9006;            5   
    1598;  1414.7759;            4   
    1599;  1415.6512;            3   
    1600;  1416.5264;            5   
    1601;  1417.4017;            4   
    1602;  1418.2770;            3   
    1603;  1419.1523;            4   
    1604;  1420.0275;           12   
    1605;  1420.9028;            4   
    1606;  1421.7781;            7   
    1607;  1422.6534;            3   
    1608;  1423.5286;            1   
    1609;  1424.4039;            4   
    1610;  1425.2792;            3   
    1611;  1426.1545;            1   
    1612;  1427.0297;            2   
    1613;  1427.9050;            3   
    1614;  1428.7803;            3   
    1615;  1429.6556;            5   
    1616;  1430.5308;            5   
    1617;  1431.4061;            3   
    1618;  1432.2814;            3   
    1619;  1433.1567;            2   
    1620;  1434.0319;            2   
    1621;  1434.9072;            5   
    1622;  1435.7825;            5   
    1623;  1436.6578;            4   
    1624;  1437.5330;            4   
    1625;  1438.4083;            5   
    1626;  1439.2836;            5   
    1627;  1440.1589;            7   
    1628;  1441.0341;            4   
    1629;  1441.9094;            2   
    1630;  1442.7847;            4   
    1631;  1443.6600;            4   
    1632;  1444.5352;            4   
    1633;  1445.4105;            2   
    1634;  1446.2858;            4   
    1635;  1447.1611;            2   
    1636;  1448.0363;            2   
    1637;  1448.9116;            3   
    1638;  1449.7869;            5   
    1639;  1450.6622;            3   
    1640;  1451.5374;            5   
    1641;  1452.4127;            2   
    1642;  1453.2880;            1   
    1643;  1454.1633;            2   
    1644;  1455.0385;            3   
    1645;  1455.9138;            5   
    1646;  1456.7891;            5   
    1647;  1457.6644;            8   
    1648;  1458.5396;            4   
    1649;  1459.4149;            9   
    1650;  1460.2902;            5   
    1651;  1461.1655;            7   
    1652;  1462.0407;            1   
    1653;  1462.9160;            8   
    1654;  1463.7913;            2   
    1655;  1464.6666;            5   
    1656;  1465.5418;            4   
    1657;  1466.4171;            5   
    1658;  1467.2924;            3   
    1659;  1468.1677;            6   
    1660;  1469.0429;            5   
    1661;  1469.9182;            7   
    1662;  1470.7935;           54   
    1663;  1471.6688;          136   
    1664;  1472.5440;          331   
    1665;  1473.4193;          424   
    1666;  1474.2946;          259   
    1667;  1475.1699;           70   
    1668;  1476.0451;           15   
    1669;  1476.9204;            2   
    1670;  1477.7957;            3   
    1671;  1478.6710;            1   
    1672;  1479.5462;            0   
    1673;  1480.4215;            3   
    1674;  1481.2968;            4   
    1675;  1482.1721;            0   
    1676;  1483.0473;            4   
    1677;  1483.9226;            4   
    1678;  1484.7979;            2   
    1679;  1485.6732;            0   
    1680;  1486.5484;            0   
    1681;  1487.4237;            1   
    1682;  1488.2990;            2   
    1683;  1489.1743;            2   
    1684;  1490.0495;            0   
    1685;  1490.9248;            1   
    1686;  1491.8001;            1   
    1687;  1492.6754;            1   
    1688;  1493.5506;            2   
    1689;  1494.4259;            2   
    1690;  1495.3012;            1   
    1691;  1496.1765;            2   
    1692;  1497.0517;            1   
    1693;  1497.9270;            1   
    1694;  1498.8023;            3   
    1695;  1499.6776;            1   
    1696;  1500.5528;            0   
    1697;  1501.4281;            2   
    1698;  1502.3034;            1   
    1699;  1503.1787;            2   
    1700;  1504.0539;            0   
    1701;  1504.9292;            4   
    1702;  1505.8045;            2   
    1703;  1506.6798;            3   
    1704;  1507.5550;            5   
    1705;  1508.4303;            3   
    1706;  1509.3056;            3   
    1707;  1510.1809;            3   
    1708;  1511.0561;            4   
    1709;  1511.9314;            5   
    1710;  1512.8067;            3   
    1711;  1513.6820;            6   
    1712;  1514.5572;            1   
    1713;  1515.4325;            1   
    1714;  1516.3078;            1   
    1715;  1517.1831;            0   
    1716;  1518.0583;            2   
    1717;  1518.9336;            4   
    1718;  1519.8089;            2   
    1719;  1520.6842;            5   
    1720;  1521.5594;            1   
    1721;  1522.4347;            3   
    1722;  1523.3100;            2   
    1723;  1524.1853;            7   
    1724;  1525.0605;            3   
    1725;  1525.9358;            2   
    1726;  1526.8111;            3   
    1727;  1527.6864;            1   
    1728;  1528.5616;            4   
    1729;  1529.4369;            1   
    1730;  1530.3122;            3   
    1731;  1531.1875;            1   
    1732;  1532.0627;            1   
    1733;  1532.9380;            1   
    1734;  1533.8133;            2   
    1735;  1534.6886;            0   
    1736;  1535.5638;            1   
    1737;  1536.4391;            1   
    1738;  1537.3144;            0   
    1739;  1538.1897;            2   
    1740;  1539.0649;            2   
    1741;  1539.9402;            2   
    1742;  1540.8155;            2   
    1743;  1541.6908;            4   
    1744;  1542.5660;            1   
    1745;  1543.4413;            2   
    1746;  1544.3166;            0   
    1747;  1545.1919;            1   
    1748;  1546.0671;            1   
    1749;  1546.9424;            1   
    1750;  1547.8177;            0   
    1751;  1548.6930;            1   
    1752;  1549.5682;            0   
    1753;  1550.4435;            0   
    1754;  1551.3188;            5   
    1755;  1552.1941;            5   
    1756;  1553.0693;            2   
    1757;  1553.9446;            0   
    1758;  1554.8199;            2   
    1759;  1555.6952;            3   
    1760;  1556.5704;            1   
    1761;  1557.4457;            1   
    1762;  1558.3210;            1   
    1763;  1559.1963;            1   
    1764;  1560.0715;            2   
    1765;  1560.9468;            1   
    1766;  1561.8221;            2   
    1767;  1562.6974;            1   
    1768;  1563.5726;            2   
    1769;  1564.4479;            0   
    1770;  1565.3232;            3   
    1771;  1566.1985;            0   
    1772;  1567.0737;            1   
    1773;  1567.9490;            0   
    1774;  1568.8243;            6   
    1775;  1569.6996;            6   
    1776;  1570.5748;            3   
    1777;  1571.4501;            2   
    1778;  1572.3254;            0   
    1779;  1573.2007;            1   
    1780;  1574.0759;            2   
    1781;  1574.9512;            1   
    1782;  1575.8265;            0   
    1783;  1576.7018;            0   
    1784;  1577.5770;            0   
    1785;  1578.4523;            4   
    1786;  1579.3276;            1   
    1787;  1580.2029;            3   
    1788;  1581.0781;            3   
    1789;  1581.9534;            2   
    1790;  1582.8287;            2   
    1791;  1583.7040;            0   
    1792;  1584.5792;            4   
    1793;  1585.4545;            1   
    1794;  1586.3298;            0   
    1795;  1587.2051;            0   
    1796;  1588.0803;            3   
    1797;  1588.9556;            0   
    1798;  1589.8309;            2   
    1799;  1590.7062;            1   
    1800;  1591.5814;            2   
    1801;  1592.4567;            1   
    1802;  1593.3320;            1   
    1803;  1594.2073;            1   
    1804;  1595.0825;            3   
    1805;  1595.9578;            2   
    1806;  1596.8331;            1   
    1807;  1597.7084;            1   
    1808;  1598.5836;            1   
    1809;  1599.4589;            5   
    1810;  1600.3342;            5   
    1811;  1601.2095;            6   
    1812;  1602.0847;            5   
    1813;  1602.9600;            2   
    1814;  1603.8353;            2   
    1815;  1604.7106;            3   
    1816;  1605.5858;            5   
    1817;  1606.4611;            5   
    1818;  1607.3364;            0   
    1819;  1608.2117;            3   
    1820;  1609.0869;            2   
    1821;  1609.9622;            0   
    1822;  1610.8375;            1   
    1823;  1611.7128;            0   
    1824;  1612.5880;            3   
    1825;  1613.4633;            1   
    1826;  1614.3386;            1   
    1827;  1615.2139;            0   
    1828;  1616.0891;            0   
    1829;  1616.9644;            0   
    1830;  1617.8397;            2   
    1831;  1618.7150;            0   
    1832;  1619.5902;            1   
    1833;  1620.4655;            3   
    1834;  1621.3408;            0   
    1835;  1622.2161;            2   
    1836;  1623.0913;            3   
    1837;  1623.9666;            1   
    1838;  1624.8419;            0   
    1839;  1625.7172;            3   
    1840;  1626.5924;            0   
    1841;  1627.4677;            0   
    1842;  1628.3430;            0   
    1843;  1629.2183;            3   
    1844;  1630.0935;            1   
    1845;  1630.9688;            1   
    1846;  1631.8441;            0   
    1847;  1632.7194;            1   
    1848;  1633.5946;            3   
    1849;  1634.4699;            5   
    1850;  1635.3452;            2   
    1851;  1636.2205;            0   
    1852;  1637.0957;            1   
    1853;  1637.9710;            3   
    1854;  1638.8463;            2   
    1855;  1639.7216;            2   
    1856;  1640.5968;            1   
    1857;  1641.4721;            3   
    1858;  1642.3474;            4   
    1859;  1643.2227;            5   
    1860;  1644.0979;            5   
    1861;  1644.9732;            3   
    1862;  1645.8485;            3   
    1863;  1646.7238;            3   
    1864;  1647.5990;            1   
    1865;  1648.4743;            0   
    1866;  1649.3496;            2   
    1867;  1650.2249;            1   
    1868;  1651.1001;            4   
    1869;  1651.9754;            2   
    1870;  1652.8507;            2   
    1871;  1653.7260;            1   
    1872;  1654.6012;            3   
    1873;  1655.4765;            2   
    1874;  1656.3518;            1   
    1875;  1657.2271;            0   
    1876;  1658.1023;            3   
    1877;  1658.9776;            1   
    1878;  1659.8529;            3   
    1879;  1660.7282;            2   
    1880;  1661.6034;            1   
    1881;  1662.4787;            0   
    1882;  1663.3540;            0   
    1883;  1664.2293;            2   
    1884;  1665.1045;            0   
    1885;  1665.9798;            1   
    1886;  1666.8551;            2   
    1887;  1667.7304;            1   
    1888;  1668.6056;            1   
    1889;  1669.4809;            0   
    1890;  1670.3562;            0   
    1891;  1671.2315;            3   
    1892;  1672.1067;            0   
    1893;  1672.9820;            1   
    1894;  1673.8573;            3   
    1895;  1674.7326;            1   
    1896;  1675.6078;            1   
    1897;  1676.4831;            3   
    1898;  1677.3584;            2   
    1899;  1678.2337;            1   
    1900;  1679.1089;            2   
    1901;  1679.9842;            4   
    1902;  1680.8595;            3   
    1903;  1681.7348;            1   
    1904;  1682.6100;            0   
    1905;  1683.4853;            2   
    1906;  1684.3606;            4   
    1907;  1685.2359;            2   
    1908;  1686.1111;            1   
    1909;  1686.9864;            0   
    1910;  1687.8617;            1   
    1911;  1688.7370;            2   
    1912;  1689.6122;            3   
    1913;  1690.4875;            1   
    1914;  1691.3628;            2   
    1915;  1692.2381;            0   
    1916;  1693.1133;            0   
    1917;  1693.9886;            1   
    1918;  1694.8639;            2   
    1919;  1695.7392;            3   
    1920;  1696.6144;            2   
    1921;  1697.4897;            2   
    1922;  1698.3650;            2   
    1923;  1699.2403;            3   
    1924;  1700.1155;            3   
    1925;  1700.9908;            2   
    1926;  1701.8661;            0   
    1927;  1702.7414;            1   
    1928;  1703.6166;            0   
    1929;  1704.4919;            1   
    1930;  1705.3672;            0   
    1931;  1706.2425;            0   
    1932;  1707.1177;            1   
    1933;  1707.9930;            0   
    1934;  1708.8683;            1   
    1935;  1709.7436;            2   
    1936;  1710.6188;            2   
    1937;  1711.4941;            0   
    1938;  1712.3694;            3   
    1939;  1713.2447;            0   
    1940;  1714.1199;            1   
    1941;  1714.9952;            1   
    1942;  1715.8705;            2   
    1943;  1716.7458;            1   
    1944;  1717.6210;            1   
    1945;  1718.4963;            1   
    1946;  1719.3716;            3   
    1947;  1720.2469;            1   
    1948;  1721.1221;            2   
    1949;  1721.9974;            1   
    1950;  1722.8727;            1   
    1951;  1723.7480;            4   
    1952;  1724.6232;            1   
    1953;  1725.4985;            1   
    1954;  1726.3738;            1   
    1955;  1727.2491;            3   
    1956;  1728.1243;            1   
    1957;  1728.9996;            0   
    1958;  1729.8749;            0   
    1959;  1730.7502;            0   
    1960;  1731.6254;            1   
    1961;  1732.5007;            0   
    1962;  1733.3760;            1   
    1963;  1734.2513;            1   
    1964;  1735.1265;            4   
    1965;  1736.0018;            1   
    1966;  1736.8771;            2   
    1967;  1737.7524;            0   
    1968;  1738.6276;            3   
    1969;  1739.5029;            4   
    1970;  1740.3782;            3   
    1971;  1741.2535;            2   
    1972;  1742.1287;            5   
    1973;  1743.0040;            5   
    1974;  1743.8793;            4   
    1975;  1744.7546;            3   
    1976;  1745.6298;            1   
    1977;  1746.5051;            2   
    1978;  1747.3804;            2   
    1979;  1748.2557;            0   
    1980;  1749.1309;            0   
    1981;  1750.0062;            0   
    1982;  1750.8815;            0   
    1983;  1751.7568;            0   
    1984;  1752.6320;            0   
    1985;  1753.5073;            0   
    1986;  1754.3826;            0   
    1987;  1755.2579;            0   
    1988;  1756.1331;            0   
    1989;  1757.0084;            0   
    1990;  1757.8837;            0   
    1991;  1758.7590;            0   
    1992;  1759.6342;            0   
    1993;  1760.5095;            0   
    1994;  1761.3848;            0   
    1995;  1762.2601;            0   
    1996;  1763.1353;            0   
    1997;  1764.0106;            0   
    1998;  1764.8859;            0   
    1999;  1765.7612;            0   
    2000;  1766.6364;            0   
    2001;  1767.5117;            0   
    2002;  1768.3870;            0   
    2003;  1769.2623;            0   
    2004;  1770.1375;            0   
    2005;  1771.0128;            0   
    2006;  1771.8881;            0   
    2007;  1772.7634;            0   
    2008;  1773.6386;            0   
    2009;  1774.5139;            0   
    2010;  1775.3892;            0   
    2011;  1776.2645;            0   
    2012;  1777.1397;            0   
    2013;  1778.0150;            0   
    2014;  1778.8903;            0   
    2015;  1779.7656;            0   
    2016;  1780.6408;            0   
    2017;  1781.5161;            0   
    2018;  1782.3914;            0   
    2019;  1783.2667;            0   
    2020;  1784.1419;            0   
    2021;  1785.0172;            0   
    2022;  1785.8925;            0   
    2023;  1786.7678;            0   
    2024;  1787.6430;            0   
    2025;  1788.5183;            0   
    2026;  1789.3936;            0   
    2027;  1790.2689;            0   
    2028;  1791.1441;            0   
    2029;  1792.0194;            0   
    2030;  1792.8947;            0   
    2031;  1793.7700;            0   
    2032;  1794.6452;            0   
    2033;  1795.5205;            0   
    2034;  1796.3958;            0   
    2035;  1797.2711;            0   
    2036;  1798.1463;            0   
    2037;  1799.0216;            0   
    2038;  1799.8969;            0   
    2039;  1800.7722;            0   
    2040;  1801.6474;            0   
    2041;  1802.5227;            0   
    2042;  1803.3980;            0   
    2043;  1804.2733;            0   
    2044;  1805.1485;            0   
    2045;  1806.0238;            0   
    2046;  1806.8991;            0   
    2047;  1807.7744;            0   
    2048;  1808.6496;            0   
ROI Nummer; Anfangskanal; Endkanal; Anfangsenergie keV ; Endenergie keV; Nettoimpulse; Bruttoimpulse; Untergrundimpulse
In den Daten wurden keine Linien gefunden
ROI Nummer; prozentualer Fehler der Lage; Lage keV; FWHM keV; FWTM keV; FWTM/FWHM Verhltnis; H/L Verhltnis
No Peak records found in data.
Name; Energie keV; Flags; Aktivitt uCi/Unit; Aktivittsfehler %; NWG uCi/Unit; MDA Error %
Es wurden keine Nuklidergebnisse gefunden.
Name; Erwartete Endergie keV; Gemessene Energie keV; Differenz von erwarteter keV; FWHM; Flags; Aktivitt uCi/Unit; Aktivittsfehler %
Es wurden keine Nuklidergebnisse gefunden.
