Kanal;   Energie(keV); Impulse
       1;    16.9617;          235   
       2;    17.8370;          222   
       3;    18.7122;          250   
       4;    19.5875;          220   
       5;    20.4628;          200   
       6;    21.3381;          190   
       7;    22.2133;          211   
       8;    23.0886;          213   
       9;    23.9639;          203   
      10;    24.8392;          184   
      11;    25.7144;          202   
      12;    26.5897;          176   
      13;    27.4650;          188   
      14;    28.3403;          152   
      15;    29.2155;          162   
      16;    30.0908;          172   
      17;    30.9661;          152   
      18;    31.8414;          156   
      19;    32.7166;          144   
      20;    33.5919;          192   
      21;    34.4672;          160   
      22;    35.3425;          170   
      23;    36.2177;          134   
      24;    37.0930;          141   
      25;    37.9683;          174   
      26;    38.8436;          155   
      27;    39.7188;          152   
      28;    40.5941;          149   
      29;    41.4694;          162   
      30;    42.3447;          155   
      31;    43.2199;          135   
      32;    44.0952;          149   
      33;    44.9705;          121   
      34;    45.8458;          149   
      35;    46.7210;          134   
      36;    47.5963;          141   
      37;    48.4716;          131   
      38;    49.3469;          148   
      39;    50.2221;          139   
      40;    51.0974;          157   
      41;    51.9727;          134   
      42;    52.8480;          136   
      43;    53.7232;          138   
      44;    54.5985;          122   
      45;    55.4738;          128   
      46;    56.3491;          150   
      47;    57.2243;          133   
      48;    58.0996;          138   
      49;    58.9749;          128   
      50;    59.8502;          139   
      51;    60.7254;          148   
      52;    61.6007;          156   
      53;    62.4760;          164   
      54;    63.3513;          143   
      55;    64.2265;          154   
      56;    65.1018;          139   
      57;    65.9771;          161   
      58;    66.8524;          160   
      59;    67.7276;          168   
      60;    68.6029;          166   
      61;    69.4782;          186   
      62;    70.3535;          223   
      63;    71.2287;          216   
      64;    72.1040;          216   
      65;    72.9793;          221   
      66;    73.8546;          200   
      67;    74.7298;          286   
      68;    75.6051;          330   
      69;    76.4804;          315   
      70;    77.3557;          384   
      71;    78.2309;          395   
      72;    79.1062;          308   
      73;    79.9815;          276   
      74;    80.8568;          217   
      75;    81.7320;          233   
      76;    82.6073;          199   
      77;    83.4826;          238   
      78;    84.3579;          245   
      79;    85.2331;          256   
      80;    86.1084;          310   
      81;    86.9837;          374   
      82;    87.8590;          368   
      83;    88.7342;          321   
      84;    89.6095;          296   
      85;    90.4848;          304   
      86;    91.3601;          313   
      87;    92.2353;          299   
      88;    93.1106;          253   
      89;    93.9859;          273   
      90;    94.8612;          294   
      91;    95.7364;          314   
      92;    96.6117;          314   
      93;    97.4870;          273   
      94;    98.3623;          249   
      95;    99.2375;          281   
      96;   100.1128;          261   
      97;   100.9881;          259   
      98;   101.8634;          288   
      99;   102.7386;          296   
     100;   103.6139;          290   
     101;   104.4892;          282   
     102;   105.3645;          289   
     103;   106.2397;          315   
     104;   107.1150;          288   
     105;   107.9903;          288   
     106;   108.8656;          301   
     107;   109.7408;          306   
     108;   110.6161;          299   
     109;   111.4914;          292   
     110;   112.3667;          271   
     111;   113.2419;          304   
     112;   114.1172;          293   
     113;   114.9925;          294   
     114;   115.8678;          275   
     115;   116.7430;          280   
     116;   117.6183;          285   
     117;   118.4936;          283   
     118;   119.3689;          278   
     119;   120.2441;          325   
     120;   121.1194;          295   
     121;   121.9947;          281   
     122;   122.8700;          275   
     123;   123.7452;          296   
     124;   124.6205;          273   
     125;   125.4958;          310   
     126;   126.3711;          290   
     127;   127.2463;          270   
     128;   128.1216;          244   
     129;   128.9969;          325   
     130;   129.8722;          299   
     131;   130.7474;          287   
     132;   131.6227;          299   
     133;   132.4980;          295   
     134;   133.3733;          300   
     135;   134.2485;          247   
     136;   135.1238;          261   
     137;   135.9991;          298   
     138;   136.8744;          277   
     139;   137.7496;          297   
     140;   138.6249;          247   
     141;   139.5002;          286   
     142;   140.3755;          283   
     143;   141.2507;          244   
     144;   142.1260;          266   
     145;   143.0013;          267   
     146;   143.8766;          237   
     147;   144.7518;          235   
     148;   145.6271;          261   
     149;   146.5024;          246   
     150;   147.3777;          220   
     151;   148.2529;          246   
     152;   149.1282;          293   
     153;   150.0035;          246   
     154;   150.8788;          235   
     155;   151.7540;          232   
     156;   152.6293;          269   
     157;   153.5046;          234   
     158;   154.3799;          258   
     159;   155.2551;          241   
     160;   156.1304;          229   
     161;   157.0057;          253   
     162;   157.8810;          222   
     163;   158.7562;          223   
     164;   159.6315;          262   
     165;   160.5068;          241   
     166;   161.3821;          220   
     167;   162.2573;          230   
     168;   163.1326;          208   
     169;   164.0079;          204   
     170;   164.8832;          217   
     171;   165.7584;          219   
     172;   166.6337;          217   
     173;   167.5090;          206   
     174;   168.3843;          218   
     175;   169.2595;          224   
     176;   170.1348;          215   
     177;   171.0101;          223   
     178;   171.8854;          190   
     179;   172.7606;          217   
     180;   173.6359;          210   
     181;   174.5112;          199   
     182;   175.3865;          208   
     183;   176.2617;          205   
     184;   177.1370;          226   
     185;   178.0123;          209   
     186;   178.8876;          192   
     187;   179.7628;          193   
     188;   180.6381;          177   
     189;   181.5134;          219   
     190;   182.3887;          194   
     191;   183.2639;          188   
     192;   184.1392;          179   
     193;   185.0145;          159   
     194;   185.8898;          188   
     195;   186.7650;          196   
     196;   187.6403;          196   
     197;   188.5156;          188   
     198;   189.3909;          188   
     199;   190.2661;          200   
     200;   191.1414;          171   
     201;   192.0167;          179   
     202;   192.8920;          178   
     203;   193.7672;          172   
     204;   194.6425;          207   
     205;   195.5178;          200   
     206;   196.3931;          188   
     207;   197.2683;          177   
     208;   198.1436;          187   
     209;   199.0189;          178   
     210;   199.8942;          172   
     211;   200.7694;          164   
     212;   201.6447;          178   
     213;   202.5200;          152   
     214;   203.3953;          159   
     215;   204.2705;          172   
     216;   205.1458;          162   
     217;   206.0211;          173   
     218;   206.8964;          160   
     219;   207.7716;          145   
     220;   208.6469;          167   
     221;   209.5222;          156   
     222;   210.3975;          144   
     223;   211.2727;          149   
     224;   212.1480;          166   
     225;   213.0233;          164   
     226;   213.8986;          158   
     227;   214.7738;          142   
     228;   215.6491;          163   
     229;   216.5244;          166   
     230;   217.3997;          134   
     231;   218.2749;          127   
     232;   219.1502;          133   
     233;   220.0255;          159   
     234;   220.9008;          165   
     235;   221.7760;          160   
     236;   222.6513;          132   
     237;   223.5266;          163   
     238;   224.4019;          152   
     239;   225.2771;          152   
     240;   226.1524;          155   
     241;   227.0277;          137   
     242;   227.9030;          129   
     243;   228.7782;          134   
     244;   229.6535;          126   
     245;   230.5288;          137   
     246;   231.4041;          130   
     247;   232.2793;          136   
     248;   233.1546;          131   
     249;   234.0299;          125   
     250;   234.9052;          131   
     251;   235.7804;          125   
     252;   236.6557;          128   
     253;   237.5310;          132   
     254;   238.4063;          128   
     255;   239.2815;          132   
     256;   240.1568;          139   
     257;   241.0321;          157   
     258;   241.9074;          220   
     259;   242.7826;          286   
     260;   243.6579;          187   
     261;   244.5332;          119   
     262;   245.4085;          164   
     263;   246.2837;          129   
     264;   247.1590;          129   
     265;   248.0343;          126   
     266;   248.9096;          106   
     267;   249.7848;           97   
     268;   250.6601;          117   
     269;   251.5354;          117   
     270;   252.4107;          118   
     271;   253.2859;          116   
     272;   254.1612;          114   
     273;   255.0365;           91   
     274;   255.9118;          122   
     275;   256.7870;          107   
     276;   257.6623;          122   
     277;   258.5376;           86   
     278;   259.4129;          101   
     279;   260.2881;           90   
     280;   261.1634;          109   
     281;   262.0387;          113   
     282;   262.9140;           93   
     283;   263.7892;          121   
     284;   264.6645;          111   
     285;   265.5398;           99   
     286;   266.4151;           86   
     287;   267.2903;           94   
     288;   268.1656;          104   
     289;   269.0409;           86   
     290;   269.9162;           90   
     291;   270.7914;           93   
     292;   271.6667;           87   
     293;   272.5420;          103   
     294;   273.4173;           99   
     295;   274.2925;           99   
     296;   275.1678;          107   
     297;   276.0431;           97   
     298;   276.9184;           98   
     299;   277.7936;           85   
     300;   278.6689;           81   
     301;   279.5442;           90   
     302;   280.4195;          100   
     303;   281.2947;          102   
     304;   282.1700;          109   
     305;   283.0453;           91   
     306;   283.9206;          121   
     307;   284.7958;           93   
     308;   285.6711;           80   
     309;   286.5464;           66   
     310;   287.4217;          103   
     311;   288.2969;           89   
     312;   289.1722;           79   
     313;   290.0475;           79   
     314;   290.9228;           72   
     315;   291.7980;           92   
     316;   292.6733;          100   
     317;   293.5486;           89   
     318;   294.4239;           95   
     319;   295.2991;           82   
     320;   296.1744;           84   
     321;   297.0497;           77   
     322;   297.9250;           73   
     323;   298.8002;          126   
     324;   299.6755;          124   
     325;   300.5508;           93   
     326;   301.4261;           73   
     327;   302.3013;           79   
     328;   303.1766;           79   
     329;   304.0519;           85   
     330;   304.9272;           74   
     331;   305.8024;           80   
     332;   306.6777;           76   
     333;   307.5530;           87   
     334;   308.4283;           71   
     335;   309.3035;           66   
     336;   310.1788;           67   
     337;   311.0541;           64   
     338;   311.9294;           65   
     339;   312.8046;           82   
     340;   313.6799;           81   
     341;   314.5552;           72   
     342;   315.4305;           72   
     343;   316.3057;           78   
     344;   317.1810;           65   
     345;   318.0563;           73   
     346;   318.9316;           89   
     347;   319.8068;           73   
     348;   320.6821;           64   
     349;   321.5574;           85   
     350;   322.4327;           74   
     351;   323.3079;           60   
     352;   324.1832;           58   
     353;   325.0585;           60   
     354;   325.9338;           81   
     355;   326.8090;           69   
     356;   327.6843;           89   
     357;   328.5596;           78   
     358;   329.4349;           64   
     359;   330.3101;           69   
     360;   331.1854;           61   
     361;   332.0607;           77   
     362;   332.9360;           51   
     363;   333.8112;           79   
     364;   334.6865;           67   
     365;   335.5618;           66   
     366;   336.4371;           61   
     367;   337.3123;           65   
     368;   338.1876;           66   
     369;   339.0629;           66   
     370;   339.9382;           65   
     371;   340.8134;           80   
     372;   341.6887;           68   
     373;   342.5640;          103   
     374;   343.4393;           89   
     375;   344.3145;           61   
     376;   345.1898;           63   
     377;   346.0651;           61   
     378;   346.9404;           70   
     379;   347.8156;           63   
     380;   348.6909;           70   
     381;   349.5662;           55   
     382;   350.4415;           52   
     383;   351.3167;           66   
     384;   352.1920;           55   
     385;   353.0673;           44   
     386;   353.9426;           62   
     387;   354.8178;           56   
     388;   355.6931;          116   
     389;   356.5684;          147   
     390;   357.4437;          102   
     391;   358.3189;           71   
     392;   359.1942;           67   
     393;   360.0695;           44   
     394;   360.9448;           53   
     395;   361.8200;           39   
     396;   362.6953;           52   
     397;   363.5706;           47   
     398;   364.4459;           56   
     399;   365.3211;           59   
     400;   366.1964;           55   
     401;   367.0717;           71   
     402;   367.9470;           68   
     403;   368.8222;           34   
     404;   369.6975;           51   
     405;   370.5728;           41   
     406;   371.4481;           51   
     407;   372.3233;           57   
     408;   373.1986;           50   
     409;   374.0739;           44   
     410;   374.9492;           46   
     411;   375.8244;           39   
     412;   376.6997;           50   
     413;   377.5750;           35   
     414;   378.4503;           44   
     415;   379.3255;           37   
     416;   380.2008;           46   
     417;   381.0761;           46   
     418;   381.9514;           60   
     419;   382.8266;           56   
     420;   383.7019;           51   
     421;   384.5772;           48   
     422;   385.4525;           35   
     423;   386.3277;           34   
     424;   387.2030;           38   
     425;   388.0783;           45   
     426;   388.9536;           54   
     427;   389.8288;           67   
     428;   390.7041;           45   
     429;   391.5794;           55   
     430;   392.4547;           29   
     431;   393.3299;           50   
     432;   394.2052;           55   
     433;   395.0805;           49   
     434;   395.9558;           44   
     435;   396.8310;           47   
     436;   397.7063;           40   
     437;   398.5816;           43   
     438;   399.4569;           47   
     439;   400.3321;           54   
     440;   401.2074;           50   
     441;   402.0827;           42   
     442;   402.9580;           50   
     443;   403.8332;           42   
     444;   404.7085;           49   
     445;   405.5838;           45   
     446;   406.4591;           43   
     447;   407.3343;           44   
     448;   408.2096;           39   
     449;   409.0849;           53   
     450;   409.9602;           49   
     451;   410.8354;           38   
     452;   411.7107;           36   
     453;   412.5860;           45   
     454;   413.4613;           37   
     455;   414.3365;           57   
     456;   415.2118;           45   
     457;   416.0871;           39   
     458;   416.9624;           21   
     459;   417.8376;           40   
     460;   418.7129;           46   
     461;   419.5882;           53   
     462;   420.4635;           42   
     463;   421.3387;           51   
     464;   422.2140;           40   
     465;   423.0893;           30   
     466;   423.9646;           37   
     467;   424.8398;           41   
     468;   425.7151;           29   
     469;   426.5904;           39   
     470;   427.4657;           39   
     471;   428.3409;           38   
     472;   429.2162;           44   
     473;   430.0915;           44   
     474;   430.9668;           33   
     475;   431.8420;           46   
     476;   432.7173;           33   
     477;   433.5926;           43   
     478;   434.4679;           39   
     479;   435.3431;           39   
     480;   436.2184;           53   
     481;   437.0937;           40   
     482;   437.9690;           61   
     483;   438.8442;           31   
     484;   439.7195;           31   
     485;   440.5948;           36   
     486;   441.4701;           48   
     487;   442.3453;           32   
     488;   443.2206;           42   
     489;   444.0959;           34   
     490;   444.9712;           35   
     491;   445.8464;           40   
     492;   446.7217;           48   
     493;   447.5970;           39   
     494;   448.4723;           34   
     495;   449.3475;           36   
     496;   450.2228;           37   
     497;   451.0981;           40   
     498;   451.9734;           43   
     499;   452.8486;           43   
     500;   453.7239;           43   
     501;   454.5992;           38   
     502;   455.4745;           37   
     503;   456.3497;           24   
     504;   457.2250;           42   
     505;   458.1003;           43   
     506;   458.9756;           34   
     507;   459.8508;           40   
     508;   460.7261;           30   
     509;   461.6014;           42   
     510;   462.4767;           27   
     511;   463.3519;           28   
     512;   464.2272;           35   
     513;   465.1025;           28   
     514;   465.9778;           23   
     515;   466.8530;           33   
     516;   467.7283;           33   
     517;   468.6036;           52   
     518;   469.4789;           36   
     519;   470.3541;           33   
     520;   471.2294;           38   
     521;   472.1047;           32   
     522;   472.9800;           34   
     523;   473.8552;           30   
     524;   474.7305;           43   
     525;   475.6058;           39   
     526;   476.4811;           33   
     527;   477.3563;           36   
     528;   478.2316;           28   
     529;   479.1069;           23   
     530;   479.9822;           32   
     531;   480.8574;           29   
     532;   481.7327;           39   
     533;   482.6080;           36   
     534;   483.4833;           36   
     535;   484.3585;           38   
     536;   485.2338;           44   
     537;   486.1091;           32   
     538;   486.9844;           32   
     539;   487.8596;           28   
     540;   488.7349;           29   
     541;   489.6102;           32   
     542;   490.4855;           43   
     543;   491.3607;           31   
     544;   492.2360;           33   
     545;   493.1113;           46   
     546;   493.9866;           36   
     547;   494.8618;           34   
     548;   495.7371;           25   
     549;   496.6124;           32   
     550;   497.4877;           27   
     551;   498.3629;           28   
     552;   499.2382;           27   
     553;   500.1135;           27   
     554;   500.9888;           32   
     555;   501.8640;           29   
     556;   502.7393;           31   
     557;   503.6146;           25   
     558;   504.4899;           23   
     559;   505.3651;           32   
     560;   506.2404;           31   
     561;   507.1157;           24   
     562;   507.9910;           29   
     563;   508.8662;           30   
     564;   509.7415;           20   
     565;   510.6168;           21   
     566;   511.4921;           19   
     567;   512.3673;           30   
     568;   513.2426;           26   
     569;   514.1179;           24   
     570;   514.9932;           52   
     571;   515.8684;           62   
     572;   516.7437;           81   
     573;   517.6190;           62   
     574;   518.4943;           50   
     575;   519.3695;           28   
     576;   520.2448;           25   
     577;   521.1201;           38   
     578;   521.9954;           22   
     579;   522.8706;           23   
     580;   523.7459;           27   
     581;   524.6212;           35   
     582;   525.4965;           24   
     583;   526.3717;           26   
     584;   527.2470;           22   
     585;   528.1223;           49   
     586;   528.9976;           32   
     587;   529.8728;           26   
     588;   530.7481;           27   
     589;   531.6234;           21   
     590;   532.4987;           31   
     591;   533.3739;           24   
     592;   534.2492;           22   
     593;   535.1245;           33   
     594;   535.9998;           29   
     595;   536.8750;           22   
     596;   537.7503;           30   
     597;   538.6256;           27   
     598;   539.5009;           22   
     599;   540.3761;           30   
     600;   541.2514;           31   
     601;   542.1267;           22   
     602;   543.0020;           22   
     603;   543.8772;           28   
     604;   544.7525;           28   
     605;   545.6278;           21   
     606;   546.5031;           24   
     607;   547.3783;           30   
     608;   548.2536;           28   
     609;   549.1289;           25   
     610;   550.0042;           18   
     611;   550.8794;           27   
     612;   551.7547;           35   
     613;   552.6300;           31   
     614;   553.5053;           30   
     615;   554.3805;           32   
     616;   555.2558;           26   
     617;   556.1311;           24   
     618;   557.0064;           18   
     619;   557.8816;           26   
     620;   558.7569;           27   
     621;   559.6322;           19   
     622;   560.5075;           26   
     623;   561.3827;           25   
     624;   562.2580;           18   
     625;   563.1333;           23   
     626;   564.0086;           35   
     627;   564.8838;           35   
     628;   565.7591;           28   
     629;   566.6344;           31   
     630;   567.5097;           26   
     631;   568.3849;           13   
     632;   569.2602;           15   
     633;   570.1355;           23   
     634;   571.0108;           31   
     635;   571.8860;           13   
     636;   572.7613;           24   
     637;   573.6366;           39   
     638;   574.5119;           25   
     639;   575.3871;           23   
     640;   576.2624;           38   
     641;   577.1377;           33   
     642;   578.0130;           26   
     643;   578.8882;           26   
     644;   579.7635;           31   
     645;   580.6388;           20   
     646;   581.5141;           34   
     647;   582.3893;           28   
     648;   583.2646;           22   
     649;   584.1399;           24   
     650;   585.0152;           27   
     651;   585.8904;           25   
     652;   586.7657;           27   
     653;   587.6410;           24   
     654;   588.5163;           46   
     655;   589.3915;           75   
     656;   590.2668;           70   
     657;   591.1421;           41   
     658;   592.0174;           22   
     659;   592.8926;           19   
     660;   593.7679;           23   
     661;   594.6432;           19   
     662;   595.5185;           23   
     663;   596.3937;           17   
     664;   597.2690;           27   
     665;   598.1443;           18   
     666;   599.0196;           18   
     667;   599.8948;           28   
     668;   600.7701;           20   
     669;   601.6454;           23   
     670;   602.5207;           17   
     671;   603.3959;           23   
     672;   604.2712;           21   
     673;   605.1465;           22   
     674;   606.0218;           25   
     675;   606.8970;           27   
     676;   607.7723;           17   
     677;   608.6476;           36   
     678;   609.5229;           25   
     679;   610.3981;           26   
     680;   611.2734;           20   
     681;   612.1487;           28   
     682;   613.0240;           18   
     683;   613.8992;           33   
     684;   614.7745;           55   
     685;   615.6498;           89   
     686;   616.5251;           89   
     687;   617.4003;           42   
     688;   618.2756;           30   
     689;   619.1509;           21   
     690;   620.0262;           17   
     691;   620.9014;           14   
     692;   621.7767;           13   
     693;   622.6520;           20   
     694;   623.5273;           16   
     695;   624.4025;           30   
     696;   625.2778;           14   
     697;   626.1531;           22   
     698;   627.0284;           18   
     699;   627.9036;           19   
     700;   628.7789;           23   
     701;   629.6542;           17   
     702;   630.5295;           22   
     703;   631.4047;           24   
     704;   632.2800;           18   
     705;   633.1553;           26   
     706;   634.0306;           14   
     707;   634.9058;           23   
     708;   635.7811;           17   
     709;   636.6564;           16   
     710;   637.5317;           26   
     711;   638.4069;           21   
     712;   639.2822;           24   
     713;   640.1575;           18   
     714;   641.0328;           23   
     715;   641.9080;           13   
     716;   642.7833;           21   
     717;   643.6586;           14   
     718;   644.5339;           24   
     719;   645.4091;           19   
     720;   646.2844;           25   
     721;   647.1597;           20   
     722;   648.0350;           27   
     723;   648.9102;           26   
     724;   649.7855;           18   
     725;   650.6608;           29   
     726;   651.5361;           15   
     727;   652.4113;           21   
     728;   653.2866;           15   
     729;   654.1619;           18   
     730;   655.0372;           28   
     731;   655.9124;           13   
     732;   656.7877;           21   
     733;   657.6630;           26   
     734;   658.5383;           20   
     735;   659.4135;           19   
     736;   660.2888;           24   
     737;   661.1641;           18   
     738;   662.0394;           22   
     739;   662.9146;           18   
     740;   663.7899;           15   
     741;   664.6652;           16   
     742;   665.5405;           25   
     743;   666.4157;           23   
     744;   667.2910;           19   
     745;   668.1663;           29   
     746;   669.0416;           30   
     747;   669.9168;            9   
     748;   670.7921;           19   
     749;   671.6674;           22   
     750;   672.5427;           17   
     751;   673.4179;           21   
     752;   674.2932;           17   
     753;   675.1685;           23   
     754;   676.0438;           15   
     755;   676.9190;           22   
     756;   677.7943;           17   
     757;   678.6696;           19   
     758;   679.5449;           21   
     759;   680.4201;           20   
     760;   681.2954;           23   
     761;   682.1707;           28   
     762;   683.0460;           27   
     763;   683.9212;           18   
     764;   684.7965;           24   
     765;   685.6718;           15   
     766;   686.5471;           22   
     767;   687.4223;           21   
     768;   688.2976;           15   
     769;   689.1729;           20   
     770;   690.0482;           28   
     771;   690.9234;           18   
     772;   691.7987;           22   
     773;   692.6740;           21   
     774;   693.5493;           15   
     775;   694.4245;           21   
     776;   695.2998;           18   
     777;   696.1751;           18   
     778;   697.0504;           19   
     779;   697.9256;           21   
     780;   698.8009;           31   
     781;   699.6762;           15   
     782;   700.5515;           20   
     783;   701.4267;           24   
     784;   702.3020;           18   
     785;   703.1773;           18   
     786;   704.0526;           20   
     787;   704.9278;           15   
     788;   705.8031;           20   
     789;   706.6784;           14   
     790;   707.5537;           23   
     791;   708.4289;           17   
     792;   709.3042;           20   
     793;   710.1795;           13   
     794;   711.0548;           16   
     795;   711.9300;           23   
     796;   712.8053;           19   
     797;   713.6806;           23   
     798;   714.5559;           22   
     799;   715.4311;           28   
     800;   716.3064;           18   
     801;   717.1817;            8   
     802;   718.0570;           18   
     803;   718.9322;           16   
     804;   719.8075;           17   
     805;   720.6828;           10   
     806;   721.5581;           10   
     807;   722.4333;            9   
     808;   723.3086;            8   
     809;   724.1839;           23   
     810;   725.0592;           21   
     811;   725.9344;           25   
     812;   726.8097;           10   
     813;   727.6850;           21   
     814;   728.5603;           18   
     815;   729.4355;           20   
     816;   730.3108;           19   
     817;   731.1861;           25   
     818;   732.0614;           18   
     819;   732.9366;           12   
     820;   733.8119;           25   
     821;   734.6872;           37   
     822;   735.5625;           28   
     823;   736.4377;           16   
     824;   737.3130;           21   
     825;   738.1883;           13   
     826;   739.0636;           17   
     827;   739.9388;           18   
     828;   740.8141;           18   
     829;   741.6894;           15   
     830;   742.5647;           20   
     831;   743.4399;           18   
     832;   744.3152;           19   
     833;   745.1905;           16   
     834;   746.0658;            8   
     835;   746.9410;           18   
     836;   747.8163;           13   
     837;   748.6916;           24   
     838;   749.5669;           18   
     839;   750.4421;           18   
     840;   751.3174;           12   
     841;   752.1927;           12   
     842;   753.0680;           16   
     843;   753.9432;           18   
     844;   754.8185;           20   
     845;   755.6938;           23   
     846;   756.5691;           10   
     847;   757.4443;           16   
     848;   758.3196;           22   
     849;   759.1949;           19   
     850;   760.0702;           15   
     851;   760.9454;           17   
     852;   761.8207;           14   
     853;   762.6960;           25   
     854;   763.5713;           14   
     855;   764.4465;           19   
     856;   765.3218;           14   
     857;   766.1971;           16   
     858;   767.0724;           11   
     859;   767.9476;           13   
     860;   768.8229;           15   
     861;   769.6982;           17   
     862;   770.5735;           25   
     863;   771.4487;           15   
     864;   772.3240;           19   
     865;   773.1993;           11   
     866;   774.0746;           22   
     867;   774.9498;           25   
     868;   775.8251;           21   
     869;   776.7004;           20   
     870;   777.5757;           19   
     871;   778.4509;           19   
     872;   779.3262;           12   
     873;   780.2015;           19   
     874;   781.0768;           18   
     875;   781.9520;           21   
     876;   782.8273;           13   
     877;   783.7026;           13   
     878;   784.5779;           14   
     879;   785.4531;           17   
     880;   786.3284;           12   
     881;   787.2037;           12   
     882;   788.0790;           14   
     883;   788.9542;           19   
     884;   789.8295;           13   
     885;   790.7048;           20   
     886;   791.5801;           18   
     887;   792.4553;           17   
     888;   793.3306;           18   
     889;   794.2059;           18   
     890;   795.0812;           15   
     891;   795.9564;           20   
     892;   796.8317;           14   
     893;   797.7070;           10   
     894;   798.5823;           13   
     895;   799.4575;           14   
     896;   800.3328;           12   
     897;   801.2081;           16   
     898;   802.0834;           23   
     899;   802.9586;           21   
     900;   803.8339;           19   
     901;   804.7092;           15   
     902;   805.5845;           14   
     903;   806.4597;           10   
     904;   807.3350;           11   
     905;   808.2103;           13   
     906;   809.0856;           12   
     907;   809.9608;           11   
     908;   810.8361;           18   
     909;   811.7114;           19   
     910;   812.5867;           16   
     911;   813.4619;           19   
     912;   814.3372;           14   
     913;   815.2125;           22   
     914;   816.0878;           12   
     915;   816.9631;           17   
     916;   817.8383;           11   
     917;   818.7136;           14   
     918;   819.5889;           12   
     919;   820.4642;           17   
     920;   821.3394;           16   
     921;   822.2147;            9   
     922;   823.0900;           16   
     923;   823.9653;            7   
     924;   824.8405;           16   
     925;   825.7158;           15   
     926;   826.5911;           12   
     927;   827.4664;           17   
     928;   828.3416;           11   
     929;   829.2169;           13   
     930;   830.0922;            5   
     931;   830.9675;           17   
     932;   831.8427;           16   
     933;   832.7180;           10   
     934;   833.5933;           12   
     935;   834.4686;            6   
     936;   835.3438;           10   
     937;   836.2191;            6   
     938;   837.0944;           16   
     939;   837.9697;           14   
     940;   838.8449;           26   
     941;   839.7202;           16   
     942;   840.5955;           12   
     943;   841.4708;           15   
     944;   842.3460;           10   
     945;   843.2213;           22   
     946;   844.0966;           22   
     947;   844.9719;           15   
     948;   845.8471;           18   
     949;   846.7224;           12   
     950;   847.5977;           14   
     951;   848.4730;           17   
     952;   849.3482;           24   
     953;   850.2235;           14   
     954;   851.0988;           16   
     955;   851.9741;           11   
     956;   852.8493;           13   
     957;   853.7246;           16   
     958;   854.5999;            9   
     959;   855.4752;            7   
     960;   856.3504;            4   
     961;   857.2257;           17   
     962;   858.1010;           14   
     963;   858.9763;           12   
     964;   859.8515;           13   
     965;   860.7268;           12   
     966;   861.6021;           13   
     967;   862.4774;           17   
     968;   863.3526;           20   
     969;   864.2279;           16   
     970;   865.1032;           18   
     971;   865.9785;           10   
     972;   866.8537;           17   
     973;   867.7290;           23   
     974;   868.6043;           21   
     975;   869.4796;           15   
     976;   870.3548;           17   
     977;   871.2301;           11   
     978;   872.1054;           11   
     979;   872.9807;           10   
     980;   873.8559;           19   
     981;   874.7312;           15   
     982;   875.6065;           14   
     983;   876.4818;           16   
     984;   877.3570;           14   
     985;   878.2323;           14   
     986;   879.1076;           10   
     987;   879.9829;           13   
     988;   880.8581;           18   
     989;   881.7334;           15   
     990;   882.6087;            7   
     991;   883.4840;           25   
     992;   884.3592;           21   
     993;   885.2345;           18   
     994;   886.1098;           14   
     995;   886.9851;           19   
     996;   887.8603;           13   
     997;   888.7356;           20   
     998;   889.6109;           11   
     999;   890.4862;           13   
    1000;   891.3614;           17   
    1001;   892.2367;            9   
    1002;   893.1120;           14   
    1003;   893.9873;           10   
    1004;   894.8625;           13   
    1005;   895.7378;           11   
    1006;   896.6131;           10   
    1007;   897.4884;            8   
    1008;   898.3636;           17   
    1009;   899.2389;           10   
    1010;   900.1142;           11   
    1011;   900.9895;            9   
    1012;   901.8647;           13   
    1013;   902.7400;           11   
    1014;   903.6153;           13   
    1015;   904.4906;           15   
    1016;   905.3658;           14   
    1017;   906.2411;           13   
    1018;   907.1164;           13   
    1019;   907.9917;           12   
    1020;   908.8669;           10   
    1021;   909.7422;           12   
    1022;   910.6175;           15   
    1023;   911.4928;           16   
    1024;   912.3680;           21   
    1025;   913.2433;           16   
    1026;   914.1186;           14   
    1027;   914.9939;            8   
    1028;   915.8691;           12   
    1029;   916.7444;           15   
    1030;   917.6197;           14   
    1031;   918.4950;           36   
    1032;   919.3702;           53   
    1033;   920.2455;           70   
    1034;   921.1208;           38   
    1035;   921.9961;           18   
    1036;   922.8713;           14   
    1037;   923.7466;           13   
    1038;   924.6219;           11   
    1039;   925.4972;           12   
    1040;   926.3724;           20   
    1041;   927.2477;           18   
    1042;   928.1230;           13   
    1043;   928.9983;           13   
    1044;   929.8735;           12   
    1045;   930.7488;           18   
    1046;   931.6241;            9   
    1047;   932.4994;           10   
    1048;   933.3746;           11   
    1049;   934.2499;           11   
    1050;   935.1252;           14   
    1051;   936.0005;            9   
    1052;   936.8757;            7   
    1053;   937.7510;           20   
    1054;   938.6263;           16   
    1055;   939.5016;           15   
    1056;   940.3768;           18   
    1057;   941.2521;           17   
    1058;   942.1274;           14   
    1059;   943.0027;           14   
    1060;   943.8779;           15   
    1061;   944.7532;            9   
    1062;   945.6285;           14   
    1063;   946.5038;           13   
    1064;   947.3790;           13   
    1065;   948.2543;           11   
    1066;   949.1296;           14   
    1067;   950.0049;           13   
    1068;   950.8801;           12   
    1069;   951.7554;           13   
    1070;   952.6307;           18   
    1071;   953.5060;           12   
    1072;   954.3812;           14   
    1073;   955.2565;           11   
    1074;   956.1318;           10   
    1075;   957.0071;           13   
    1076;   957.8823;           20   
    1077;   958.7576;           16   
    1078;   959.6329;           10   
    1079;   960.5082;           11   
    1080;   961.3834;           19   
    1081;   962.2587;           12   
    1082;   963.1340;           12   
    1083;   964.0093;            9   
    1084;   964.8845;           10   
    1085;   965.7598;           14   
    1086;   966.6351;           12   
    1087;   967.5104;           10   
    1088;   968.3856;           16   
    1089;   969.2609;            7   
    1090;   970.1362;           10   
    1091;   971.0115;           16   
    1092;   971.8867;           17   
    1093;   972.7620;           20   
    1094;   973.6373;           17   
    1095;   974.5126;           16   
    1096;   975.3878;           14   
    1097;   976.2631;           17   
    1098;   977.1384;           34   
    1099;   978.0137;           38   
    1100;   978.8889;           25   
    1101;   979.7642;           14   
    1102;   980.6395;           13   
    1103;   981.5148;           10   
    1104;   982.3900;           11   
    1105;   983.2653;           11   
    1106;   984.1406;            8   
    1107;   985.0159;            9   
    1108;   985.8911;           10   
    1109;   986.7664;            7   
    1110;   987.6417;           14   
    1111;   988.5170;           13   
    1112;   989.3922;            9   
    1113;   990.2675;           16   
    1114;   991.1428;           12   
    1115;   992.0181;           14   
    1116;   992.8933;           14   
    1117;   993.7686;           12   
    1118;   994.6439;            4   
    1119;   995.5192;            8   
    1120;   996.3944;            9   
    1121;   997.2697;           13   
    1122;   998.1450;            8   
    1123;   999.0203;           15   
    1124;   999.8955;            7   
    1125;  1000.7708;           10   
    1126;  1001.6461;            5   
    1127;  1002.5214;            8   
    1128;  1003.3966;            5   
    1129;  1004.2719;           10   
    1130;  1005.1472;           17   
    1131;  1006.0225;           15   
    1132;  1006.8977;           11   
    1133;  1007.7730;           14   
    1134;  1008.6483;            8   
    1135;  1009.5236;           17   
    1136;  1010.3988;           13   
    1137;  1011.2741;           12   
    1138;  1012.1494;            7   
    1139;  1013.0247;            7   
    1140;  1013.8999;           15   
    1141;  1014.7752;            7   
    1142;  1015.6505;           12   
    1143;  1016.5258;            9   
    1144;  1017.4010;           12   
    1145;  1018.2763;            8   
    1146;  1019.1516;            6   
    1147;  1020.0269;           10   
    1148;  1020.9021;           13   
    1149;  1021.7774;           11   
    1150;  1022.6527;           17   
    1151;  1023.5280;           10   
    1152;  1024.4032;           10   
    1153;  1025.2785;            7   
    1154;  1026.1538;           13   
    1155;  1027.0291;           15   
    1156;  1027.9043;           13   
    1157;  1028.7796;           10   
    1158;  1029.6549;            5   
    1159;  1030.5302;           11   
    1160;  1031.4054;           20   
    1161;  1032.2807;           14   
    1162;  1033.1560;            9   
    1163;  1034.0313;            5   
    1164;  1034.9065;           14   
    1165;  1035.7818;           12   
    1166;  1036.6571;           16   
    1167;  1037.5324;           12   
    1168;  1038.4076;           14   
    1169;  1039.2829;           10   
    1170;  1040.1582;            9   
    1171;  1041.0335;           20   
    1172;  1041.9087;            7   
    1173;  1042.7840;           14   
    1174;  1043.6593;            6   
    1175;  1044.5346;           11   
    1176;  1045.4098;           19   
    1177;  1046.2851;           10   
    1178;  1047.1604;           10   
    1179;  1048.0357;            5   
    1180;  1048.9109;           24   
    1181;  1049.7862;           12   
    1182;  1050.6615;           13   
    1183;  1051.5368;           16   
    1184;  1052.4120;            9   
    1185;  1053.2873;           13   
    1186;  1054.1626;           13   
    1187;  1055.0379;           10   
    1188;  1055.9131;           16   
    1189;  1056.7884;           15   
    1190;  1057.6637;           15   
    1191;  1058.5390;           14   
    1192;  1059.4142;           16   
    1193;  1060.2895;           15   
    1194;  1061.1648;            8   
    1195;  1062.0401;           11   
    1196;  1062.9153;           17   
    1197;  1063.7906;           19   
    1198;  1064.6659;           11   
    1199;  1065.5412;            7   
    1200;  1066.4164;           11   
    1201;  1067.2917;           11   
    1202;  1068.1670;            7   
    1203;  1069.0423;            8   
    1204;  1069.9175;           13   
    1205;  1070.7928;           20   
    1206;  1071.6681;            8   
    1207;  1072.5434;            8   
    1208;  1073.4186;           10   
    1209;  1074.2939;           15   
    1210;  1075.1692;            8   
    1211;  1076.0445;           13   
    1212;  1076.9197;           12   
    1213;  1077.7950;           12   
    1214;  1078.6703;           12   
    1215;  1079.5456;            5   
    1216;  1080.4208;           10   
    1217;  1081.2961;           13   
    1218;  1082.1714;            8   
    1219;  1083.0467;           10   
    1220;  1083.9219;           10   
    1221;  1084.7972;            8   
    1222;  1085.6725;           14   
    1223;  1086.5478;           15   
    1224;  1087.4230;           13   
    1225;  1088.2983;            8   
    1226;  1089.1736;            8   
    1227;  1090.0489;           11   
    1228;  1090.9241;           11   
    1229;  1091.7994;           12   
    1230;  1092.6747;           14   
    1231;  1093.5500;           12   
    1232;  1094.4252;           12   
    1233;  1095.3005;            3   
    1234;  1096.1758;            6   
    1235;  1097.0511;            8   
    1236;  1097.9263;            7   
    1237;  1098.8016;           20   
    1238;  1099.6769;            8   
    1239;  1100.5522;           13   
    1240;  1101.4274;           16   
    1241;  1102.3027;           12   
    1242;  1103.1780;           14   
    1243;  1104.0533;            9   
    1244;  1104.9285;           14   
    1245;  1105.8038;            8   
    1246;  1106.6791;           10   
    1247;  1107.5544;            6   
    1248;  1108.4296;           16   
    1249;  1109.3049;           14   
    1250;  1110.1802;           12   
    1251;  1111.0555;           12   
    1252;  1111.9307;           19   
    1253;  1112.8060;           13   
    1254;  1113.6813;           12   
    1255;  1114.5566;            8   
    1256;  1115.4318;            4   
    1257;  1116.3071;           16   
    1258;  1117.1824;            8   
    1259;  1118.0577;           13   
    1260;  1118.9329;           10   
    1261;  1119.8082;            7   
    1262;  1120.6835;           14   
    1263;  1121.5588;            6   
    1264;  1122.4340;           11   
    1265;  1123.3093;           19   
    1266;  1124.1846;           14   
    1267;  1125.0599;           16   
    1268;  1125.9351;            9   
    1269;  1126.8104;            7   
    1270;  1127.6857;           14   
    1271;  1128.5610;           19   
    1272;  1129.4362;           25   
    1273;  1130.3115;           48   
    1274;  1131.1868;           29   
    1275;  1132.0621;           24   
    1276;  1132.9373;           12   
    1277;  1133.8126;           14   
    1278;  1134.6879;            8   
    1279;  1135.5632;           13   
    1280;  1136.4384;            9   
    1281;  1137.3137;            7   
    1282;  1138.1890;           17   
    1283;  1139.0643;           10   
    1284;  1139.9395;           16   
    1285;  1140.8148;           11   
    1286;  1141.6901;           14   
    1287;  1142.5654;            4   
    1288;  1143.4406;           15   
    1289;  1144.3159;            9   
    1290;  1145.1912;           11   
    1291;  1146.0665;            7   
    1292;  1146.9417;           11   
    1293;  1147.8170;           11   
    1294;  1148.6923;           19   
    1295;  1149.5676;            8   
    1296;  1150.4428;           16   
    1297;  1151.3181;            7   
    1298;  1152.1934;            9   
    1299;  1153.0687;            9   
    1300;  1153.9439;           12   
    1301;  1154.8192;           13   
    1302;  1155.6945;           16   
    1303;  1156.5698;           15   
    1304;  1157.4450;           13   
    1305;  1158.3203;           15   
    1306;  1159.1956;            4   
    1307;  1160.0709;           15   
    1308;  1160.9461;           11   
    1309;  1161.8214;           18   
    1310;  1162.6967;           11   
    1311;  1163.5720;           14   
    1312;  1164.4472;           11   
    1313;  1165.3225;           12   
    1314;  1166.1978;            8   
    1315;  1167.0731;           11   
    1316;  1167.9483;            9   
    1317;  1168.8236;           16   
    1318;  1169.6989;            7   
    1319;  1170.5742;           15   
    1320;  1171.4494;            7   
    1321;  1172.3247;           12   
    1322;  1173.2000;           12   
    1323;  1174.0753;           15   
    1324;  1174.9505;           17   
    1325;  1175.8258;           15   
    1326;  1176.7011;           13   
    1327;  1177.5764;           14   
    1328;  1178.4516;           10   
    1329;  1179.3269;           13   
    1330;  1180.2022;           18   
    1331;  1181.0775;           18   
    1332;  1181.9527;           16   
    1333;  1182.8280;           16   
    1334;  1183.7033;           12   
    1335;  1184.5786;           12   
    1336;  1185.4538;            9   
    1337;  1186.3291;           17   
    1338;  1187.2044;           11   
    1339;  1188.0797;           10   
    1340;  1188.9549;           13   
    1341;  1189.8302;           15   
    1342;  1190.7055;           10   
    1343;  1191.5808;           15   
    1344;  1192.4560;           10   
    1345;  1193.3313;           18   
    1346;  1194.2066;           17   
    1347;  1195.0819;           15   
    1348;  1195.9571;           15   
    1349;  1196.8324;            8   
    1350;  1197.7077;           14   
    1351;  1198.5830;           12   
    1352;  1199.4582;           12   
    1353;  1200.3335;           12   
    1354;  1201.2088;           13   
    1355;  1202.0841;            3   
    1356;  1202.9593;           16   
    1357;  1203.8346;           11   
    1358;  1204.7099;           12   
    1359;  1205.5852;           17   
    1360;  1206.4604;            7   
    1361;  1207.3357;           11   
    1362;  1208.2110;           15   
    1363;  1209.0863;           18   
    1364;  1209.9615;           13   
    1365;  1210.8368;            9   
    1366;  1211.7121;           15   
    1367;  1212.5874;            7   
    1368;  1213.4626;           14   
    1369;  1214.3379;            8   
    1370;  1215.2132;           10   
    1371;  1216.0885;            6   
    1372;  1216.9637;           14   
    1373;  1217.8390;           17   
    1374;  1218.7143;           18   
    1375;  1219.5896;           16   
    1376;  1220.4648;           10   
    1377;  1221.3401;           15   
    1378;  1222.2154;            8   
    1379;  1223.0907;           15   
    1380;  1223.9659;            9   
    1381;  1224.8412;           11   
    1382;  1225.7165;           18   
    1383;  1226.5918;            7   
    1384;  1227.4670;           16   
    1385;  1228.3423;           12   
    1386;  1229.2176;           14   
    1387;  1230.0929;           11   
    1388;  1230.9681;           14   
    1389;  1231.8434;           11   
    1390;  1232.7187;           10   
    1391;  1233.5940;           12   
    1392;  1234.4692;           19   
    1393;  1235.3445;           12   
    1394;  1236.2198;           17   
    1395;  1237.0951;           11   
    1396;  1237.9703;           14   
    1397;  1238.8456;           13   
    1398;  1239.7209;           15   
    1399;  1240.5962;           12   
    1400;  1241.4714;           13   
    1401;  1242.3467;            8   
    1402;  1243.2220;           11   
    1403;  1244.0973;           12   
    1404;  1244.9725;            8   
    1405;  1245.8478;           13   
    1406;  1246.7231;           11   
    1407;  1247.5984;           16   
    1408;  1248.4736;           25   
    1409;  1249.3489;           16   
    1410;  1250.2242;           13   
    1411;  1251.0995;           15   
    1412;  1251.9747;           14   
    1413;  1252.8500;            7   
    1414;  1253.7253;            9   
    1415;  1254.6006;           12   
    1416;  1255.4758;            7   
    1417;  1256.3511;           10   
    1418;  1257.2264;           10   
    1419;  1258.1017;           10   
    1420;  1258.9769;            9   
    1421;  1259.8522;            8   
    1422;  1260.7275;           10   
    1423;  1261.6028;            8   
    1424;  1262.4780;           14   
    1425;  1263.3533;            9   
    1426;  1264.2286;           14   
    1427;  1265.1039;            7   
    1428;  1265.9791;           10   
    1429;  1266.8544;           10   
    1430;  1267.7297;           12   
    1431;  1268.6050;            9   
    1432;  1269.4802;            4   
    1433;  1270.3555;           15   
    1434;  1271.2308;            5   
    1435;  1272.1061;            7   
    1436;  1272.9813;           11   
    1437;  1273.8566;            5   
    1438;  1274.7319;            9   
    1439;  1275.6072;           13   
    1440;  1276.4824;            7   
    1441;  1277.3577;           12   
    1442;  1278.2330;            7   
    1443;  1279.1083;            5   
    1444;  1279.9835;            9   
    1445;  1280.8588;           10   
    1446;  1281.7341;            9   
    1447;  1282.6094;            7   
    1448;  1283.4846;            7   
    1449;  1284.3599;            6   
    1450;  1285.2352;           19   
    1451;  1286.1105;           11   
    1452;  1286.9857;           10   
    1453;  1287.8610;            4   
    1454;  1288.7363;            8   
    1455;  1289.6116;            7   
    1456;  1290.4868;           16   
    1457;  1291.3621;            8   
    1458;  1292.2374;           11   
    1459;  1293.1127;            6   
    1460;  1293.9879;            8   
    1461;  1294.8632;           10   
    1462;  1295.7385;            5   
    1463;  1296.6138;           10   
    1464;  1297.4890;            7   
    1465;  1298.3643;            4   
    1466;  1299.2396;            6   
    1467;  1300.1149;            3   
    1468;  1300.9901;            3   
    1469;  1301.8654;            3   
    1470;  1302.7407;            9   
    1471;  1303.6160;            9   
    1472;  1304.4912;            7   
    1473;  1305.3665;           12   
    1474;  1306.2418;            3   
    1475;  1307.1171;            8   
    1476;  1307.9923;            7   
    1477;  1308.8676;            9   
    1478;  1309.7429;            7   
    1479;  1310.6182;            9   
    1480;  1311.4934;            6   
    1481;  1312.3687;            2   
    1482;  1313.2440;            3   
    1483;  1314.1193;            1   
    1484;  1314.9945;            3   
    1485;  1315.8698;            8   
    1486;  1316.7451;            7   
    1487;  1317.6204;            4   
    1488;  1318.4956;            6   
    1489;  1319.3709;           10   
    1490;  1320.2462;            7   
    1491;  1321.1215;            5   
    1492;  1321.9967;            6   
    1493;  1322.8720;            7   
    1494;  1323.7473;            7   
    1495;  1324.6226;            6   
    1496;  1325.4978;           11   
    1497;  1326.3731;            8   
    1498;  1327.2484;            7   
    1499;  1328.1237;            3   
    1500;  1328.9989;            5   
    1501;  1329.8742;            4   
    1502;  1330.7495;            2   
    1503;  1331.6248;            4   
    1504;  1332.5000;            7   
    1505;  1333.3753;            4   
    1506;  1334.2506;           12   
    1507;  1335.1259;            4   
    1508;  1336.0011;            6   
    1509;  1336.8764;            6   
    1510;  1337.7517;            6   
    1511;  1338.6270;            5   
    1512;  1339.5022;            7   
    1513;  1340.3775;            7   
    1514;  1341.2528;            5   
    1515;  1342.1281;            2   
    1516;  1343.0033;            4   
    1517;  1343.8786;            5   
    1518;  1344.7539;            9   
    1519;  1345.6292;            8   
    1520;  1346.5044;            1   
    1521;  1347.3797;            7   
    1522;  1348.2550;            3   
    1523;  1349.1303;            3   
    1524;  1350.0055;            3   
    1525;  1350.8808;            9   
    1526;  1351.7561;            6   
    1527;  1352.6314;            7   
    1528;  1353.5066;            2   
    1529;  1354.3819;            5   
    1530;  1355.2572;            6   
    1531;  1356.1325;            7   
    1532;  1357.0077;            3   
    1533;  1357.8830;            3   
    1534;  1358.7583;            6   
    1535;  1359.6336;            6   
    1536;  1360.5088;            7   
    1537;  1361.3841;            6   
    1538;  1362.2594;            3   
    1539;  1363.1347;            3   
    1540;  1364.0099;            3   
    1541;  1364.8852;            4   
    1542;  1365.7605;            0   
    1543;  1366.6358;            3   
    1544;  1367.5110;            4   
    1545;  1368.3863;            5   
    1546;  1369.2616;            1   
    1547;  1370.1369;            0   
    1548;  1371.0121;            7   
    1549;  1371.8874;            5   
    1550;  1372.7627;            4   
    1551;  1373.6380;            6   
    1552;  1374.5132;            5   
    1553;  1375.3885;            7   
    1554;  1376.2638;            5   
    1555;  1377.1391;            9   
    1556;  1378.0143;            3   
    1557;  1378.8896;            2   
    1558;  1379.7649;            7   
    1559;  1380.6402;            5   
    1560;  1381.5154;            1   
    1561;  1382.3907;            4   
    1562;  1383.2660;            6   
    1563;  1384.1413;            2   
    1564;  1385.0165;            5   
    1565;  1385.8918;            3   
    1566;  1386.7671;            5   
    1567;  1387.6424;            1   
    1568;  1388.5176;            6   
    1569;  1389.3929;           11   
    1570;  1390.2682;            6   
    1571;  1391.1435;            5   
    1572;  1392.0187;            5   
    1573;  1392.8940;            1   
    1574;  1393.7693;            3   
    1575;  1394.6446;            7   
    1576;  1395.5198;            6   
    1577;  1396.3951;            2   
    1578;  1397.2704;            5   
    1579;  1398.1457;            2   
    1580;  1399.0209;            4   
    1581;  1399.8962;            2   
    1582;  1400.7715;            4   
    1583;  1401.6468;            5   
    1584;  1402.5220;            7   
    1585;  1403.3973;            3   
    1586;  1404.2726;            3   
    1587;  1405.1479;            2   
    1588;  1406.0231;            8   
    1589;  1406.8984;            1   
    1590;  1407.7737;            2   
    1591;  1408.6490;            2   
    1592;  1409.5242;            3   
    1593;  1410.3995;            2   
    1594;  1411.2748;            3   
    1595;  1412.1501;            2   
    1596;  1413.0253;            3   
    1597;  1413.9006;            5   
    1598;  1414.7759;            3   
    1599;  1415.6512;            5   
    1600;  1416.5264;            1   
    1601;  1417.4017;            3   
    1602;  1418.2770;            6   
    1603;  1419.1523;            4   
    1604;  1420.0275;           12   
    1605;  1420.9028;            9   
    1606;  1421.7781;            4   
    1607;  1422.6534;            6   
    1608;  1423.5286;            7   
    1609;  1424.4039;            1   
    1610;  1425.2792;            3   
    1611;  1426.1545;            2   
    1612;  1427.0297;            4   
    1613;  1427.9050;            2   
    1614;  1428.7803;            2   
    1615;  1429.6556;            6   
    1616;  1430.5308;            5   
    1617;  1431.4061;            1   
    1618;  1432.2814;            4   
    1619;  1433.1567;            5   
    1620;  1434.0319;            2   
    1621;  1434.9072;            5   
    1622;  1435.7825;            2   
    1623;  1436.6578;            2   
    1624;  1437.5330;            6   
    1625;  1438.4083;            4   
    1626;  1439.2836;            4   
    1627;  1440.1589;            3   
    1628;  1441.0341;            3   
    1629;  1441.9094;            1   
    1630;  1442.7847;            5   
    1631;  1443.6600;            1   
    1632;  1444.5352;            3   
    1633;  1445.4105;            1   
    1634;  1446.2858;            4   
    1635;  1447.1611;            6   
    1636;  1448.0363;            0   
    1637;  1448.9116;            3   
    1638;  1449.7869;            2   
    1639;  1450.6622;            3   
    1640;  1451.5374;            2   
    1641;  1452.4127;            6   
    1642;  1453.2880;            3   
    1643;  1454.1633;            3   
    1644;  1455.0385;            3   
    1645;  1455.9138;            2   
    1646;  1456.7891;            2   
    1647;  1457.6644;            1   
    1648;  1458.5396;            4   
    1649;  1459.4149;            6   
    1650;  1460.2902;            2   
    1651;  1461.1655;            5   
    1652;  1462.0407;            1   
    1653;  1462.9160;            4   
    1654;  1463.7913;            3   
    1655;  1464.6666;            4   
    1656;  1465.5418;            0   
    1657;  1466.4171;            4   
    1658;  1467.2924;            3   
    1659;  1468.1677;            4   
    1660;  1469.0429;            7   
    1661;  1469.9182;           29   
    1662;  1470.7935;           63   
    1663;  1471.6688;          227   
    1664;  1472.5440;          374   
    1665;  1473.4193;          319   
    1666;  1474.2946;          139   
    1667;  1475.1699;           25   
    1668;  1476.0451;            5   
    1669;  1476.9204;            1   
    1670;  1477.7957;            5   
    1671;  1478.6710;            0   
    1672;  1479.5462;            3   
    1673;  1480.4215;            2   
    1674;  1481.2968;            2   
    1675;  1482.1721;            2   
    1676;  1483.0473;            3   
    1677;  1483.9226;            2   
    1678;  1484.7979;            1   
    1679;  1485.6732;            2   
    1680;  1486.5484;            0   
    1681;  1487.4237;            3   
    1682;  1488.2990;            0   
    1683;  1489.1743;            5   
    1684;  1490.0495;            1   
    1685;  1490.9248;            3   
    1686;  1491.8001;            3   
    1687;  1492.6754;            0   
    1688;  1493.5506;            2   
    1689;  1494.4259;            4   
    1690;  1495.3012;            3   
    1691;  1496.1765;            3   
    1692;  1497.0517;            3   
    1693;  1497.9270;            2   
    1694;  1498.8023;            1   
    1695;  1499.6776;            0   
    1696;  1500.5528;            0   
    1697;  1501.4281;            3   
    1698;  1502.3034;            6   
    1699;  1503.1787;            1   
    1700;  1504.0539;            1   
    1701;  1504.9292;            1   
    1702;  1505.8045;            4   
    1703;  1506.6798;            0   
    1704;  1507.5550;            2   
    1705;  1508.4303;            4   
    1706;  1509.3056;            1   
    1707;  1510.1809;            1   
    1708;  1511.0561;            3   
    1709;  1511.9314;            1   
    1710;  1512.8067;            3   
    1711;  1513.6820;            3   
    1712;  1514.5572;            3   
    1713;  1515.4325;            4   
    1714;  1516.3078;            1   
    1715;  1517.1831;            2   
    1716;  1518.0583;            2   
    1717;  1518.9336;            1   
    1718;  1519.8089;            1   
    1719;  1520.6842;            5   
    1720;  1521.5594;           11   
    1721;  1522.4347;            3   
    1722;  1523.3100;            4   
    1723;  1524.1853;            2   
    1724;  1525.0605;            1   
    1725;  1525.9358;            3   
    1726;  1526.8111;            1   
    1727;  1527.6864;            3   
    1728;  1528.5616;            1   
    1729;  1529.4369;            0   
    1730;  1530.3122;            2   
    1731;  1531.1875;            2   
    1732;  1532.0627;            4   
    1733;  1532.9380;            1   
    1734;  1533.8133;            1   
    1735;  1534.6886;            0   
    1736;  1535.5638;            1   
    1737;  1536.4391;            2   
    1738;  1537.3144;            0   
    1739;  1538.1897;            0   
    1740;  1539.0649;            2   
    1741;  1539.9402;            2   
    1742;  1540.8155;            3   
    1743;  1541.6908;            2   
    1744;  1542.5660;            1   
    1745;  1543.4413;            1   
    1746;  1544.3166;            2   
    1747;  1545.1919;            2   
    1748;  1546.0671;            1   
    1749;  1546.9424;            3   
    1750;  1547.8177;            1   
    1751;  1548.6930;            2   
    1752;  1549.5682;            3   
    1753;  1550.4435;            0   
    1754;  1551.3188;            0   
    1755;  1552.1941;            1   
    1756;  1553.0693;            2   
    1757;  1553.9446;            1   
    1758;  1554.8199;            4   
    1759;  1555.6952;            1   
    1760;  1556.5704;            1   
    1761;  1557.4457;            0   
    1762;  1558.3210;            0   
    1763;  1559.1963;            2   
    1764;  1560.0715;            0   
    1765;  1560.9468;            0   
    1766;  1561.8221;            1   
    1767;  1562.6974;            1   
    1768;  1563.5726;            1   
    1769;  1564.4479;            2   
    1770;  1565.3232;            0   
    1771;  1566.1985;            2   
    1772;  1567.0737;            2   
    1773;  1567.9490;            1   
    1774;  1568.8243;            2   
    1775;  1569.6996;            1   
    1776;  1570.5748;            2   
    1777;  1571.4501;            0   
    1778;  1572.3254;            2   
    1779;  1573.2007;            1   
    1780;  1574.0759;            3   
    1781;  1574.9512;            1   
    1782;  1575.8265;            2   
    1783;  1576.7018;            1   
    1784;  1577.5770;            1   
    1785;  1578.4523;            3   
    1786;  1579.3276;            0   
    1787;  1580.2029;            3   
    1788;  1581.0781;            0   
    1789;  1581.9534;            2   
    1790;  1582.8287;            1   
    1791;  1583.7040;            3   
    1792;  1584.5792;            6   
    1793;  1585.4545;            1   
    1794;  1586.3298;            1   
    1795;  1587.2051;            4   
    1796;  1588.0803;            1   
    1797;  1588.9556;            3   
    1798;  1589.8309;            0   
    1799;  1590.7062;            2   
    1800;  1591.5814;            1   
    1801;  1592.4567;            5   
    1802;  1593.3320;            3   
    1803;  1594.2073;            2   
    1804;  1595.0825;            1   
    1805;  1595.9578;            5   
    1806;  1596.8331;            1   
    1807;  1597.7084;            2   
    1808;  1598.5836;            2   
    1809;  1599.4589;            4   
    1810;  1600.3342;            8   
    1811;  1601.2095;            7   
    1812;  1602.0847;            4   
    1813;  1602.9600;            7   
    1814;  1603.8353;            5   
    1815;  1604.7106;            3   
    1816;  1605.5858;            7   
    1817;  1606.4611;            3   
    1818;  1607.3364;            2   
    1819;  1608.2117;            1   
    1820;  1609.0869;            1   
    1821;  1609.9622;            1   
    1822;  1610.8375;            0   
    1823;  1611.7128;            2   
    1824;  1612.5880;            0   
    1825;  1613.4633;            2   
    1826;  1614.3386;            3   
    1827;  1615.2139;            2   
    1828;  1616.0891;            5   
    1829;  1616.9644;            3   
    1830;  1617.8397;            1   
    1831;  1618.7150;            2   
    1832;  1619.5902;            1   
    1833;  1620.4655;            1   
    1834;  1621.3408;            0   
    1835;  1622.2161;            2   
    1836;  1623.0913;            3   
    1837;  1623.9666;            2   
    1838;  1624.8419;            1   
    1839;  1625.7172;            2   
    1840;  1626.5924;            0   
    1841;  1627.4677;            3   
    1842;  1628.3430;            0   
    1843;  1629.2183;            1   
    1844;  1630.0935;            3   
    1845;  1630.9688;            4   
    1846;  1631.8441;            2   
    1847;  1632.7194;            1   
    1848;  1633.5946;            3   
    1849;  1634.4699;            3   
    1850;  1635.3452;            1   
    1851;  1636.2205;            1   
    1852;  1637.0957;            6   
    1853;  1637.9710;            2   
    1854;  1638.8463;            3   
    1855;  1639.7216;            0   
    1856;  1640.5968;            3   
    1857;  1641.4721;            2   
    1858;  1642.3474;            6   
    1859;  1643.2227;            5   
    1860;  1644.0979;            6   
    1861;  1644.9732;            2   
    1862;  1645.8485;            3   
    1863;  1646.7238;            1   
    1864;  1647.5990;            2   
    1865;  1648.4743;            2   
    1866;  1649.3496;            0   
    1867;  1650.2249;            4   
    1868;  1651.1001;            3   
    1869;  1651.9754;            2   
    1870;  1652.8507;            3   
    1871;  1653.7260;            2   
    1872;  1654.6012;            2   
    1873;  1655.4765;            3   
    1874;  1656.3518;            1   
    1875;  1657.2271;            2   
    1876;  1658.1023;            1   
    1877;  1658.9776;            0   
    1878;  1659.8529;            1   
    1879;  1660.7282;            2   
    1880;  1661.6034;            1   
    1881;  1662.4787;            1   
    1882;  1663.3540;            3   
    1883;  1664.2293;            0   
    1884;  1665.1045;            0   
    1885;  1665.9798;            2   
    1886;  1666.8551;            3   
    1887;  1667.7304;            1   
    1888;  1668.6056;            4   
    1889;  1669.4809;            1   
    1890;  1670.3562;            1   
    1891;  1671.2315;            1   
    1892;  1672.1067;            3   
    1893;  1672.9820;            3   
    1894;  1673.8573;            1   
    1895;  1674.7326;            3   
    1896;  1675.6078;            4   
    1897;  1676.4831;            0   
    1898;  1677.3584;            1   
    1899;  1678.2337;            2   
    1900;  1679.1089;            1   
    1901;  1679.9842;            4   
    1902;  1680.8595;            1   
    1903;  1681.7348;            1   
    1904;  1682.6100;            0   
    1905;  1683.4853;            1   
    1906;  1684.3606;            0   
    1907;  1685.2359;            3   
    1908;  1686.1111;            4   
    1909;  1686.9864;            3   
    1910;  1687.8617;            1   
    1911;  1688.7370;            3   
    1912;  1689.6122;            2   
    1913;  1690.4875;            1   
    1914;  1691.3628;            1   
    1915;  1692.2381;            0   
    1916;  1693.1133;            1   
    1917;  1693.9886;            1   
    1918;  1694.8639;            3   
    1919;  1695.7392;            1   
    1920;  1696.6144;            0   
    1921;  1697.4897;            2   
    1922;  1698.3650;            2   
    1923;  1699.2403;            1   
    1924;  1700.1155;            1   
    1925;  1700.9908;            3   
    1926;  1701.8661;            1   
    1927;  1702.7414;            1   
    1928;  1703.6166;            4   
    1929;  1704.4919;            3   
    1930;  1705.3672;            0   
    1931;  1706.2425;            0   
    1932;  1707.1177;            4   
    1933;  1707.9930;            1   
    1934;  1708.8683;            1   
    1935;  1709.7436;            0   
    1936;  1710.6188;            1   
    1937;  1711.4941;            1   
    1938;  1712.3694;            3   
    1939;  1713.2447;            0   
    1940;  1714.1199;            0   
    1941;  1714.9952;            2   
    1942;  1715.8705;            0   
    1943;  1716.7458;            2   
    1944;  1717.6210;            1   
    1945;  1718.4963;            4   
    1946;  1719.3716;            1   
    1947;  1720.2469;            1   
    1948;  1721.1221;            3   
    1949;  1721.9974;            3   
    1950;  1722.8727;            1   
    1951;  1723.7480;            3   
    1952;  1724.6232;            0   
    1953;  1725.4985;            0   
    1954;  1726.3738;            1   
    1955;  1727.2491;            1   
    1956;  1728.1243;            3   
    1957;  1728.9996;            1   
    1958;  1729.8749;            0   
    1959;  1730.7502;            0   
    1960;  1731.6254;            2   
    1961;  1732.5007;            0   
    1962;  1733.3760;            0   
    1963;  1734.2513;            1   
    1964;  1735.1265;            2   
    1965;  1736.0018;            2   
    1966;  1736.8771;            0   
    1967;  1737.7524;            0   
    1968;  1738.6276;            2   
    1969;  1739.5029;            1   
    1970;  1740.3782;            0   
    1971;  1741.2535;            5   
    1972;  1742.1287;            2   
    1973;  1743.0040;            2   
    1974;  1743.8793;            0   
    1975;  1744.7546;            2   
    1976;  1745.6298;            4   
    1977;  1746.5051;            1   
    1978;  1747.3804;            1   
    1979;  1748.2557;            1   
    1980;  1749.1309;            0   
    1981;  1750.0062;            0   
    1982;  1750.8815;            0   
    1983;  1751.7568;            0   
    1984;  1752.6320;            0   
    1985;  1753.5073;            0   
    1986;  1754.3826;            0   
    1987;  1755.2579;            0   
    1988;  1756.1331;            0   
    1989;  1757.0084;            0   
    1990;  1757.8837;            0   
    1991;  1758.7590;            0   
    1992;  1759.6342;            0   
    1993;  1760.5095;            0   
    1994;  1761.3848;            0   
    1995;  1762.2601;            0   
    1996;  1763.1353;            0   
    1997;  1764.0106;            0   
    1998;  1764.8859;            0   
    1999;  1765.7612;            0   
    2000;  1766.6364;            0   
    2001;  1767.5117;            0   
    2002;  1768.3870;            0   
    2003;  1769.2623;            0   
    2004;  1770.1375;            0   
    2005;  1771.0128;            0   
    2006;  1771.8881;            0   
    2007;  1772.7634;            0   
    2008;  1773.6386;            0   
    2009;  1774.5139;            0   
    2010;  1775.3892;            0   
    2011;  1776.2645;            0   
    2012;  1777.1397;            0   
    2013;  1778.0150;            0   
    2014;  1778.8903;            0   
    2015;  1779.7656;            0   
    2016;  1780.6408;            0   
    2017;  1781.5161;            0   
    2018;  1782.3914;            0   
    2019;  1783.2667;            0   
    2020;  1784.1419;            0   
    2021;  1785.0172;            0   
    2022;  1785.8925;            0   
    2023;  1786.7678;            0   
    2024;  1787.6430;            0   
    2025;  1788.5183;            0   
    2026;  1789.3936;            0   
    2027;  1790.2689;            0   
    2028;  1791.1441;            0   
    2029;  1792.0194;            0   
    2030;  1792.8947;            0   
    2031;  1793.7700;            0   
    2032;  1794.6452;            0   
    2033;  1795.5205;            0   
    2034;  1796.3958;            0   
    2035;  1797.2711;            0   
    2036;  1798.1463;            0   
    2037;  1799.0216;            0   
    2038;  1799.8969;            0   
    2039;  1800.7722;            0   
    2040;  1801.6474;            0   
    2041;  1802.5227;            0   
    2042;  1803.3980;            0   
    2043;  1804.2733;            0   
    2044;  1805.1485;            0   
    2045;  1806.0238;            0   
    2046;  1806.8991;            0   
    2047;  1807.7744;            0   
    2048;  1808.6496;            0   
ROI Nummer; Anfangskanal; Endkanal; Anfangsenergie keV ; Endenergie keV; Nettoimpulse; Bruttoimpulse; Untergrundimpulse
In den Daten wurden keine Linien gefunden
ROI Nummer; prozentualer Fehler der Lage; Lage keV; FWHM keV; FWTM keV; FWTM/FWHM Verhltnis; H/L Verhltnis
No Peak records found in data.
Name; Energie keV; Flags; Aktivitt uCi/Unit; Aktivittsfehler %; NWG uCi/Unit; MDA Error %
Es wurden keine Nuklidergebnisse gefunden.
Name; Erwartete Endergie keV; Gemessene Energie keV; Differenz von erwarteter keV; FWHM; Flags; Aktivitt uCi/Unit; Aktivittsfehler %
Es wurden keine Nuklidergebnisse gefunden.
