Kanal;   Energie(keV); Impulse
       1;    16.9617;          532   
       2;    17.8370;          539   
       3;    18.7122;          524   
       4;    19.5875;          484   
       5;    20.4628;          491   
       6;    21.3381;          473   
       7;    22.2133;          446   
       8;    23.0886;          441   
       9;    23.9639;          438   
      10;    24.8392;          422   
      11;    25.7144;          361   
      12;    26.5897;          425   
      13;    27.4650;          375   
      14;    28.3403;          398   
      15;    29.2155;          396   
      16;    30.0908;          416   
      17;    30.9661;          323   
      18;    31.8414;          370   
      19;    32.7166;          359   
      20;    33.5919;          364   
      21;    34.4672;          356   
      22;    35.3425;          347   
      23;    36.2177;          394   
      24;    37.0930;          358   
      25;    37.9683;          350   
      26;    38.8436;          368   
      27;    39.7188;          365   
      28;    40.5941;          341   
      29;    41.4694;          375   
      30;    42.3447;          393   
      31;    43.2199;          369   
      32;    44.0952;          336   
      33;    44.9705;          336   
      34;    45.8458;          318   
      35;    46.7210;          304   
      36;    47.5963;          391   
      37;    48.4716;          428   
      38;    49.3469;          347   
      39;    50.2221;          299   
      40;    51.0974;          290   
      41;    51.9727;          272   
      42;    52.8480;          302   
      43;    53.7232;          292   
      44;    54.5985;          291   
      45;    55.4738;          291   
      46;    56.3491;          288   
      47;    57.2243;          285   
      48;    58.0996;          283   
      49;    58.9749;          275   
      50;    59.8502;          291   
      51;    60.7254;          305   
      52;    61.6007;          289   
      53;    62.4760;          343   
      54;    63.3513;          281   
      55;    64.2265;          305   
      56;    65.1018;          324   
      57;    65.9771;          329   
      58;    66.8524;          324   
      59;    67.7276;          325   
      60;    68.6029;          337   
      61;    69.4782;          357   
      62;    70.3535;          381   
      63;    71.2287;          366   
      64;    72.1040;          367   
      65;    72.9793;          409   
      66;    73.8546;          416   
      67;    74.7298;          618   
      68;    75.6051;          834   
      69;    76.4804;          711   
      70;    77.3557;         1046   
      71;    78.2309;         1064   
      72;    79.1062;          536   
      73;    79.9815;          430   
      74;    80.8568;          409   
      75;    81.7320;          422   
      76;    82.6073;          450   
      77;    83.4826;          429   
      78;    84.3579;          463   
      79;    85.2331;          521   
      80;    86.1084;          547   
      81;    86.9837;          858   
      82;    87.8590;          997   
      83;    88.7342;          734   
      84;    89.6095;          653   
      85;    90.4848;          630   
      86;    91.3601;          613   
      87;    92.2353;          507   
      88;    93.1106;          512   
      89;    93.9859;          495   
      90;    94.8612;          529   
      91;    95.7364;          533   
      92;    96.6117;          494   
      93;    97.4870;          511   
      94;    98.3623;          560   
      95;    99.2375;          544   
      96;   100.1128;          543   
      97;   100.9881;          547   
      98;   101.8634;          559   
      99;   102.7386;          571   
     100;   103.6139;          576   
     101;   104.4892;          562   
     102;   105.3645;          531   
     103;   106.2397;          532   
     104;   107.1150;          565   
     105;   107.9903;          565   
     106;   108.8656;          599   
     107;   109.7408;          588   
     108;   110.6161;          587   
     109;   111.4914;          579   
     110;   112.3667;          562   
     111;   113.2419;          604   
     112;   114.1172;          629   
     113;   114.9925;          549   
     114;   115.8678;          608   
     115;   116.7430;          557   
     116;   117.6183;          589   
     117;   118.4936;          681   
     118;   119.3689;          575   
     119;   120.2441;          582   
     120;   121.1194;          612   
     121;   121.9947;          555   
     122;   122.8700;          645   
     123;   123.7452;         2025   
     124;   124.6205;         6916   
     125;   125.4958;         5664   
     126;   126.3711;         1270   
     127;   127.2463;          516   
     128;   128.1216;          470   
     129;   128.9969;          432   
     130;   129.8722;          449   
     131;   130.7474;          409   
     132;   131.6227;          441   
     133;   132.4980;          420   
     134;   133.3733;          423   
     135;   134.2485;          451   
     136;   135.1238;          415   
     137;   135.9991;          468   
     138;   136.8744;          443   
     139;   137.7496;          404   
     140;   138.6249;          391   
     141;   139.5002;          373   
     142;   140.3755;          462   
     143;   141.2507;          407   
     144;   142.1260;          376   
     145;   143.0013;          429   
     146;   143.8766;          396   
     147;   144.7518;          427   
     148;   145.6271;          403   
     149;   146.5024;          416   
     150;   147.3777;          429   
     151;   148.2529;          424   
     152;   149.1282;          413   
     153;   150.0035;          451   
     154;   150.8788;          441   
     155;   151.7540;          474   
     156;   152.6293;          477   
     157;   153.5046;          461   
     158;   154.3799;          466   
     159;   155.2551;          420   
     160;   156.1304;          471   
     161;   157.0057;          447   
     162;   157.8810;          406   
     163;   158.7562;          450   
     164;   159.6315;          391   
     165;   160.5068;          407   
     166;   161.3821;          414   
     167;   162.2573;          427   
     168;   163.1326;          398   
     169;   164.0079;          406   
     170;   164.8832;          413   
     171;   165.7584;          417   
     172;   166.6337;          448   
     173;   167.5090;          403   
     174;   168.3843;          384   
     175;   169.2595;          381   
     176;   170.1348;          372   
     177;   171.0101;          363   
     178;   171.8854;          370   
     179;   172.7606;          386   
     180;   173.6359;          377   
     181;   174.5112;          391   
     182;   175.3865;          367   
     183;   176.2617;          412   
     184;   177.1370;          365   
     185;   178.0123;          356   
     186;   178.8876;          379   
     187;   179.7628;          344   
     188;   180.6381;          365   
     189;   181.5134;          338   
     190;   182.3887;          377   
     191;   183.2639;          364   
     192;   184.1392;          399   
     193;   185.0145;          382   
     194;   185.8898;          371   
     195;   186.7650;          365   
     196;   187.6403;          380   
     197;   188.5156;          367   
     198;   189.3909;          334   
     199;   190.2661;          327   
     200;   191.1414;          344   
     201;   192.0167;          344   
     202;   192.8920;          359   
     203;   193.7672;          370   
     204;   194.6425;          338   
     205;   195.5178;          361   
     206;   196.3931;          394   
     207;   197.2683;          373   
     208;   198.1436;          374   
     209;   199.0189;          362   
     210;   199.8942;          321   
     211;   200.7694;          317   
     212;   201.6447;          322   
     213;   202.5200;          342   
     214;   203.3953;          318   
     215;   204.2705;          316   
     216;   205.1458;          328   
     217;   206.0211;          313   
     218;   206.8964;          286   
     219;   207.7716;          316   
     220;   208.6469;          318   
     221;   209.5222;          293   
     222;   210.3975;          303   
     223;   211.2727;          352   
     224;   212.1480;          328   
     225;   213.0233;          317   
     226;   213.8986;          333   
     227;   214.7738;          329   
     228;   215.6491;          317   
     229;   216.5244;          312   
     230;   217.3997;          328   
     231;   218.2749;          324   
     232;   219.1502;          305   
     233;   220.0255;          284   
     234;   220.9008;          296   
     235;   221.7760;          292   
     236;   222.6513;          296   
     237;   223.5266;          302   
     238;   224.4019;          298   
     239;   225.2771;          291   
     240;   226.1524;          268   
     241;   227.0277;          254   
     242;   227.9030;          281   
     243;   228.7782;          276   
     244;   229.6535;          275   
     245;   230.5288;          293   
     246;   231.4041;          251   
     247;   232.2793;          296   
     248;   233.1546;          270   
     249;   234.0299;          267   
     250;   234.9052;          261   
     251;   235.7804;          223   
     252;   236.6557;          255   
     253;   237.5310;          254   
     254;   238.4063;          231   
     255;   239.2815;          249   
     256;   240.1568;          225   
     257;   241.0321;          268   
     258;   241.9074;          271   
     259;   242.7826;          301   
     260;   243.6579;          291   
     261;   244.5332;          262   
     262;   245.4085;          245   
     263;   246.2837;          254   
     264;   247.1590;          328   
     265;   248.0343;          994   
     266;   248.9096;         1744   
     267;   249.7848;          866   
     268;   250.6601;          263   
     269;   251.5354;          238   
     270;   252.4107;          240   
     271;   253.2859;          247   
     272;   254.1612;          213   
     273;   255.0365;          209   
     274;   255.9118;          217   
     275;   256.7870;          211   
     276;   257.6623;          176   
     277;   258.5376;          201   
     278;   259.4129;          218   
     279;   260.2881;          224   
     280;   261.1634;          208   
     281;   262.0387;          208   
     282;   262.9140;          196   
     283;   263.7892;          188   
     284;   264.6645;          212   
     285;   265.5398;          191   
     286;   266.4151;          202   
     287;   267.2903;          205   
     288;   268.1656;          191   
     289;   269.0409;          206   
     290;   269.9162;          164   
     291;   270.7914;          194   
     292;   271.6667;          205   
     293;   272.5420;          203   
     294;   273.4173;          206   
     295;   274.2925;          213   
     296;   275.1678;          214   
     297;   276.0431;          186   
     298;   276.9184;          182   
     299;   277.7936;          185   
     300;   278.6689;          182   
     301;   279.5442;          169   
     302;   280.4195;          165   
     303;   281.2947;          187   
     304;   282.1700;          194   
     305;   283.0453;          167   
     306;   283.9206;          169   
     307;   284.7958;          175   
     308;   285.6711;          173   
     309;   286.5464;          164   
     310;   287.4217;          188   
     311;   288.2969;          175   
     312;   289.1722;          166   
     313;   290.0475;          150   
     314;   290.9228;          156   
     315;   291.7980;          170   
     316;   292.6733;          172   
     317;   293.5486;          145   
     318;   294.4239;          176   
     319;   295.2991;          148   
     320;   296.1744;          158   
     321;   297.0497;          156   
     322;   297.9250;          152   
     323;   298.8002;          177   
     324;   299.6755;          206   
     325;   300.5508;          236   
     326;   301.4261;          214   
     327;   302.3013;          169   
     328;   303.1766;          158   
     329;   304.0519;          166   
     330;   304.9272;          135   
     331;   305.8024;          153   
     332;   306.6777;          188   
     333;   307.5530;          157   
     334;   308.4283;          132   
     335;   309.3035;          127   
     336;   310.1788;          137   
     337;   311.0541;          132   
     338;   311.9294;          140   
     339;   312.8046;          131   
     340;   313.6799;          129   
     341;   314.5552;          157   
     342;   315.4305;          170   
     343;   316.3057;          158   
     344;   317.1810;          149   
     345;   318.0563;          158   
     346;   318.9316;          123   
     347;   319.8068;          143   
     348;   320.6821;          148   
     349;   321.5574;          141   
     350;   322.4327;          144   
     351;   323.3079;          167   
     352;   324.1832;          117   
     353;   325.0585;          123   
     354;   325.9338;          144   
     355;   326.8090;          140   
     356;   327.6843;          131   
     357;   328.5596;          148   
     358;   329.4349;          166   
     359;   330.3101;          155   
     360;   331.1854;          144   
     361;   332.0607;          112   
     362;   332.9360;          148   
     363;   333.8112;          132   
     364;   334.6865;          133   
     365;   335.5618;          130   
     366;   336.4371;          108   
     367;   337.3123;          141   
     368;   338.1876;          108   
     369;   339.0629;          150   
     370;   339.9382;          109   
     371;   340.8134;          131   
     372;   341.6887;          140   
     373;   342.5640;          130   
     374;   343.4393;          134   
     375;   344.3145;          136   
     376;   345.1898;          124   
     377;   346.0651;          134   
     378;   346.9404;          188   
     379;   347.8156;          720   
     380;   348.6909;         3048   
     381;   349.5662;         3766   
     382;   350.4415;         1219   
     383;   351.3167;          219   
     384;   352.1920;          123   
     385;   353.0673;          128   
     386;   353.9426;          106   
     387;   354.8178;          120   
     388;   355.6931;          109   
     389;   356.5684;          141   
     390;   357.4437;          144   
     391;   358.3189;          115   
     392;   359.1942;           96   
     393;   360.0695;           95   
     394;   360.9448;          101   
     395;   361.8200;          107   
     396;   362.6953;          111   
     397;   363.5706;           99   
     398;   364.4459;          100   
     399;   365.3211;          104   
     400;   366.1964;          119   
     401;   367.0717;          106   
     402;   367.9470;          102   
     403;   368.8222;          120   
     404;   369.6975;           88   
     405;   370.5728;          101   
     406;   371.4481;          119   
     407;   372.3233;          169   
     408;   373.1986;          227   
     409;   374.0739;          127   
     410;   374.9492;          119   
     411;   375.8244;          129   
     412;   376.6997;           87   
     413;   377.5750;           88   
     414;   378.4503;          102   
     415;   379.3255;           98   
     416;   380.2008;           96   
     417;   381.0761;           97   
     418;   381.9514;          106   
     419;   382.8266;           96   
     420;   383.7019;           98   
     421;   384.5772;           98   
     422;   385.4525;           96   
     423;   386.3277;           86   
     424;   387.2030;           84   
     425;   388.0783;          113   
     426;   388.9536;           86   
     427;   389.8288;          110   
     428;   390.7041;          100   
     429;   391.5794;           92   
     430;   392.4547;          112   
     431;   393.3299;           95   
     432;   394.2052;          115   
     433;   395.0805;           96   
     434;   395.9558;           87   
     435;   396.8310;          102   
     436;   397.7063;           90   
     437;   398.5816;          105   
     438;   399.4569;           92   
     439;   400.3321;           81   
     440;   401.2074;           86   
     441;   402.0827;           93   
     442;   402.9580;           91   
     443;   403.8332;           97   
     444;   404.7085;          106   
     445;   405.5838;           71   
     446;   406.4591;           86   
     447;   407.3343;           76   
     448;   408.2096;           97   
     449;   409.0849;           88   
     450;   409.9602;           92   
     451;   410.8354;          100   
     452;   411.7107;           86   
     453;   412.5860;           95   
     454;   413.4613;           86   
     455;   414.3365;           81   
     456;   415.2118;          158   
     457;   416.0871;          283   
     458;   416.9624;          360   
     459;   417.8376;          162   
     460;   418.7129;           85   
     461;   419.5882;           62   
     462;   420.4635;           90   
     463;   421.3387;           97   
     464;   422.2140;           93   
     465;   423.0893;           88   
     466;   423.9646;           84   
     467;   424.8398;           91   
     468;   425.7151;           79   
     469;   426.5904;           85   
     470;   427.4657;           78   
     471;   428.3409;           76   
     472;   429.2162;           82   
     473;   430.0915;           73   
     474;   430.9668;           94   
     475;   431.8420;           78   
     476;   432.7173;           89   
     477;   433.5926;           74   
     478;   434.4679;           82   
     479;   435.3431;           92   
     480;   436.2184;           70   
     481;   437.0937;           79   
     482;   437.9690;           86   
     483;   438.8442;           84   
     484;   439.7195;           71   
     485;   440.5948;           62   
     486;   441.4701;           82   
     487;   442.3453;           80   
     488;   443.2206;           80   
     489;   444.0959;           82   
     490;   444.9712;           93   
     491;   445.8464;           90   
     492;   446.7217;           98   
     493;   447.5970;           91   
     494;   448.4723;          181   
     495;   449.3475;          380   
     496;   450.2228;          377   
     497;   451.0981;          171   
     498;   451.9734;          103   
     499;   452.8486;           87   
     500;   453.7239;           81   
     501;   454.5992;           77   
     502;   455.4745;           89   
     503;   456.3497;           79   
     504;   457.2250;           83   
     505;   458.1003;           78   
     506;   458.9756;           71   
     507;   459.8508;           82   
     508;   460.7261;           75   
     509;   461.6014;           65   
     510;   462.4767;           68   
     511;   463.3519;           82   
     512;   464.2272;           74   
     513;   465.1025;           87   
     514;   465.9778;           59   
     515;   466.8530;           86   
     516;   467.7283;           78   
     517;   468.6036;           75   
     518;   469.4789;          103   
     519;   470.3541;           86   
     520;   471.2294;           80   
     521;   472.1047;           80   
     522;   472.9800;           69   
     523;   473.8552;           81   
     524;   474.7305;           64   
     525;   475.6058;           78   
     526;   476.4811;           89   
     527;   477.3563;           85   
     528;   478.2316;           83   
     529;   479.1069;           82   
     530;   479.9822;           64   
     531;   480.8574;           76   
     532;   481.7327;           85   
     533;   482.6080;           70   
     534;   483.4833;           76   
     535;   484.3585;           80   
     536;   485.2338;           85   
     537;   486.1091;           75   
     538;   486.9844;           60   
     539;   487.8596;           57   
     540;   488.7349;           81   
     541;   489.6102;           69   
     542;   490.4855;           80   
     543;   491.3607;           77   
     544;   492.2360;           68   
     545;   493.1113;           86   
     546;   493.9866;           86   
     547;   494.8618;          118   
     548;   495.7371;           88   
     549;   496.6124;           58   
     550;   497.4877;           73   
     551;   498.3629;           88   
     552;   499.2382;           70   
     553;   500.1135;           72   
     554;   500.9888;           72   
     555;   501.8640;           76   
     556;   502.7393;           60   
     557;   503.6146;           73   
     558;   504.4899;           75   
     559;   505.3651;           72   
     560;   506.2404;           77   
     561;   507.1157;           75   
     562;   507.9910;           61   
     563;   508.8662;           79   
     564;   509.7415;          121   
     565;   510.6168;           75   
     566;   511.4921;           80   
     567;   512.3673;           73   
     568;   513.2426;           68   
     569;   514.1179;           65   
     570;   514.9932;           70   
     571;   515.8684;           90   
     572;   516.7437;          100   
     573;   517.6190;          100   
     574;   518.4943;           82   
     575;   519.3695;           85   
     576;   520.2448;           68   
     577;   521.1201;           80   
     578;   521.9954;           65   
     579;   522.8706;           55   
     580;   523.7459;           73   
     581;   524.6212;           66   
     582;   525.4965;           68   
     583;   526.3717;           69   
     584;   527.2470;           77   
     585;   528.1223;           68   
     586;   528.9976;           69   
     587;   529.8728;           75   
     588;   530.7481;           62   
     589;   531.6234;           68   
     590;   532.4987;           51   
     591;   533.3739;           73   
     592;   534.2492;           68   
     593;   535.1245;           68   
     594;   535.9998;           49   
     595;   536.8750;           70   
     596;   537.7503;           67   
     597;   538.6256;           65   
     598;   539.5009;           60   
     599;   540.3761;           61   
     600;   541.2514;           63   
     601;   542.1267;           76   
     602;   543.0020;           62   
     603;   543.8772;           62   
     604;   544.7525;           57   
     605;   545.6278;           57   
     606;   546.5031;           59   
     607;   547.3783;           77   
     608;   548.2536;           64   
     609;   549.1289;           75   
     610;   550.0042;           74   
     611;   550.8794;           65   
     612;   551.7547;           79   
     613;   552.6300;           68   
     614;   553.5053;           77   
     615;   554.3805;           73   
     616;   555.2558;           67   
     617;   556.1311;           68   
     618;   557.0064;           74   
     619;   557.8816;           63   
     620;   558.7569;           59   
     621;   559.6322;           82   
     622;   560.5075;           74   
     623;   561.3827;           62   
     624;   562.2580;           77   
     625;   563.1333;           69   
     626;   564.0086;           77   
     627;   564.8838;           78   
     628;   565.7591;           80   
     629;   566.6344;           79   
     630;   567.5097;           75   
     631;   568.3849;           60   
     632;   569.2602;           71   
     633;   570.1355;           91   
     634;   571.0108;          108   
     635;   571.8860;           90   
     636;   572.7613;           76   
     637;   573.6366;           82   
     638;   574.5119;           65   
     639;   575.3871;           71   
     640;   576.2624;           73   
     641;   577.1377;           78   
     642;   578.0130;           62   
     643;   578.8882;           62   
     644;   579.7635;           73   
     645;   580.6388;           65   
     646;   581.5141;           64   
     647;   582.3893;           77   
     648;   583.2646;           61   
     649;   584.1399;           56   
     650;   585.0152;           61   
     651;   585.8904;           71   
     652;   586.7657;           66   
     653;   587.6410;           51   
     654;   588.5163;           59   
     655;   589.3915;           87   
     656;   590.2668;          111   
     657;   591.1421;           84   
     658;   592.0174;           86   
     659;   592.8926;           90   
     660;   593.7679;           95   
     661;   594.6432;           57   
     662;   595.5185;           65   
     663;   596.3937;           61   
     664;   597.2690;           72   
     665;   598.1443;           52   
     666;   599.0196;           64   
     667;   599.8948;           45   
     668;   600.7701;           61   
     669;   601.6454;           55   
     670;   602.5207;           70   
     671;   603.3959;           61   
     672;   604.2712;           52   
     673;   605.1465;           61   
     674;   606.0218;           61   
     675;   606.8970;           64   
     676;   607.7723;           61   
     677;   608.6476;           65   
     678;   609.5229;           48   
     679;   610.3981;           47   
     680;   611.2734;           47   
     681;   612.1487;           40   
     682;   613.0240;           68   
     683;   613.8992;           55   
     684;   614.7745;           57   
     685;   615.6498;           89   
     686;   616.5251;          107   
     687;   617.4003;           83   
     688;   618.2756;           52   
     689;   619.1509;           49   
     690;   620.0262;           63   
     691;   620.9014;           57   
     692;   621.7767;           63   
     693;   622.6520;           45   
     694;   623.5273;           57   
     695;   624.4025;           56   
     696;   625.2778;           63   
     697;   626.1531;           55   
     698;   627.0284;           64   
     699;   627.9036;           58   
     700;   628.7789;           44   
     701;   629.6542;           42   
     702;   630.5295;           57   
     703;   631.4047;           52   
     704;   632.2800;           60   
     705;   633.1553;           64   
     706;   634.0306;           43   
     707;   634.9058;           61   
     708;   635.7811;           48   
     709;   636.6564;           45   
     710;   637.5317;           46   
     711;   638.4069;           56   
     712;   639.2822;           64   
     713;   640.1575;           54   
     714;   641.0328;           45   
     715;   641.9080;           52   
     716;   642.7833;           49   
     717;   643.6586;           46   
     718;   644.5339;           52   
     719;   645.4091;           58   
     720;   646.2844;           43   
     721;   647.1597;           45   
     722;   648.0350;           64   
     723;   648.9102;           59   
     724;   649.7855;           57   
     725;   650.6608;           59   
     726;   651.5361;           41   
     727;   652.4113;           58   
     728;   653.2866;           52   
     729;   654.1619;           41   
     730;   655.0372;           60   
     731;   655.9124;           63   
     732;   656.7877;           49   
     733;   657.6630;           54   
     734;   658.5383;           60   
     735;   659.4135;           35   
     736;   660.2888;           50   
     737;   661.1641;           40   
     738;   662.0394;           47   
     739;   662.9146;           57   
     740;   663.7899;           55   
     741;   664.6652;           58   
     742;   665.5405;           48   
     743;   666.4157;           52   
     744;   667.2910;           43   
     745;   668.1663;           62   
     746;   669.0416;           83   
     747;   669.9168;           79   
     748;   670.7921;           56   
     749;   671.6674;           52   
     750;   672.5427;           39   
     751;   673.4179;           57   
     752;   674.2932;           55   
     753;   675.1685;           46   
     754;   676.0438;           51   
     755;   676.9190;           58   
     756;   677.7943;           56   
     757;   678.6696;           38   
     758;   679.5449;           50   
     759;   680.4201;           34   
     760;   681.2954;           54   
     761;   682.1707;           69   
     762;   683.0460;           60   
     763;   683.9212;           58   
     764;   684.7965;           58   
     765;   685.6718;           69   
     766;   686.5471;           75   
     767;   687.4223;           64   
     768;   688.2976;           42   
     769;   689.1729;           40   
     770;   690.0482;           56   
     771;   690.9234;           46   
     772;   691.7987;           45   
     773;   692.6740;           52   
     774;   693.5493;           44   
     775;   694.4245;           48   
     776;   695.2998;           73   
     777;   696.1751;          107   
     778;   697.0504;           77   
     779;   697.9256;           60   
     780;   698.8009;           50   
     781;   699.6762;           51   
     782;   700.5515;           41   
     783;   701.4267;           34   
     784;   702.3020;           51   
     785;   703.1773;           54   
     786;   704.0526;           61   
     787;   704.9278;           43   
     788;   705.8031;           45   
     789;   706.6784;           40   
     790;   707.5537;           48   
     791;   708.4289;           45   
     792;   709.3042;           50   
     793;   710.1795;           43   
     794;   711.0548;           40   
     795;   711.9300;           48   
     796;   712.8053;           43   
     797;   713.6806;           48   
     798;   714.5559;           49   
     799;   715.4311;           52   
     800;   716.3064;           54   
     801;   717.1817;           46   
     802;   718.0570;           51   
     803;   718.9322;           45   
     804;   719.8075;           35   
     805;   720.6828;           63   
     806;   721.5581;           55   
     807;   722.4333;           53   
     808;   723.3086;           46   
     809;   724.1839;           47   
     810;   725.0592;           44   
     811;   725.9344;           48   
     812;   726.8097;           63   
     813;   727.6850;           70   
     814;   728.5603;           64   
     815;   729.4355;           46   
     816;   730.3108;           44   
     817;   731.1861;           67   
     818;   732.0614;           48   
     819;   732.9366;           51   
     820;   733.8119;           46   
     821;   734.6872;           54   
     822;   735.5625;           61   
     823;   736.4377;           51   
     824;   737.3130;           48   
     825;   738.1883;           51   
     826;   739.0636;           46   
     827;   739.9388;           58   
     828;   740.8141;           41   
     829;   741.6894;           52   
     830;   742.5647;           50   
     831;   743.4399;           49   
     832;   744.3152;           49   
     833;   745.1905;           45   
     834;   746.0658;           41   
     835;   746.9410;           47   
     836;   747.8163;           48   
     837;   748.6916;           51   
     838;   749.5669;           64   
     839;   750.4421;           50   
     840;   751.3174;           46   
     841;   752.1927;           35   
     842;   753.0680;           54   
     843;   753.9432;           44   
     844;   754.8185;           43   
     845;   755.6938;           39   
     846;   756.5691;           48   
     847;   757.4443;           40   
     848;   758.3196;           50   
     849;   759.1949;           51   
     850;   760.0702;           45   
     851;   760.9454;           34   
     852;   761.8207;           40   
     853;   762.6960;           47   
     854;   763.5713;           41   
     855;   764.4465;           57   
     856;   765.3218;           54   
     857;   766.1971;           54   
     858;   767.0724;           58   
     859;   767.9476;           50   
     860;   768.8229;           39   
     861;   769.6982;           40   
     862;   770.5735;           41   
     863;   771.4487;           49   
     864;   772.3240;           50   
     865;   773.1993;           46   
     866;   774.0746;           49   
     867;   774.9498;           46   
     868;   775.8251;           56   
     869;   776.7004;           48   
     870;   777.5757;           42   
     871;   778.4509;           53   
     872;   779.3262;           41   
     873;   780.2015;           53   
     874;   781.0768;           41   
     875;   781.9520;           43   
     876;   782.8273;           35   
     877;   783.7026;           56   
     878;   784.5779;           49   
     879;   785.4531;          107   
     880;   786.3284;          442   
     881;   787.2037;          852   
     882;   788.0790;          613   
     883;   788.9542;          189   
     884;   789.8295;           47   
     885;   790.7048;           26   
     886;   791.5801;           44   
     887;   792.4553;           41   
     888;   793.3306;           42   
     889;   794.2059;           49   
     890;   795.0812;           41   
     891;   795.9564;           34   
     892;   796.8317;           42   
     893;   797.7070;           42   
     894;   798.5823;           40   
     895;   799.4575;           38   
     896;   800.3328;           43   
     897;   801.2081;           48   
     898;   802.0834;           38   
     899;   802.9586;           42   
     900;   803.8339;           47   
     901;   804.7092;           49   
     902;   805.5845;           44   
     903;   806.4597;           40   
     904;   807.3350;           48   
     905;   808.2103;           33   
     906;   809.0856;           35   
     907;   809.9608;           37   
     908;   810.8361;           42   
     909;   811.7114;           35   
     910;   812.5867;           41   
     911;   813.4619;           41   
     912;   814.3372;           40   
     913;   815.2125;           52   
     914;   816.0878;           33   
     915;   816.9631;           42   
     916;   817.8383;           36   
     917;   818.7136;           57   
     918;   819.5889;           54   
     919;   820.4642;           49   
     920;   821.3394;           53   
     921;   822.2147;           34   
     922;   823.0900;           40   
     923;   823.9653;           42   
     924;   824.8405;           39   
     925;   825.7158;           43   
     926;   826.5911;           35   
     927;   827.4664;           49   
     928;   828.3416;           39   
     929;   829.2169;           43   
     930;   830.0922;           41   
     931;   830.9675;           40   
     932;   831.8427;           36   
     933;   832.7180;           38   
     934;   833.5933;           38   
     935;   834.4686;           42   
     936;   835.3438;           33   
     937;   836.2191;           44   
     938;   837.0944;           40   
     939;   837.9697;           38   
     940;   838.8449;           38   
     941;   839.7202;           38   
     942;   840.5955;           32   
     943;   841.4708;           42   
     944;   842.3460;           40   
     945;   843.2213;           43   
     946;   844.0966;           39   
     947;   844.9719;           39   
     948;   845.8471;           28   
     949;   846.7224;           43   
     950;   847.5977;           46   
     951;   848.4730;           32   
     952;   849.3482;           49   
     953;   850.2235;           60   
     954;   851.0988;           44   
     955;   851.9741;           42   
     956;   852.8493;           49   
     957;   853.7246;           44   
     958;   854.5999;           43   
     959;   855.4752;           38   
     960;   856.3504;           29   
     961;   857.2257;           38   
     962;   858.1010;           37   
     963;   858.9763;           43   
     964;   859.8515;           40   
     965;   860.7268;           35   
     966;   861.6021;           39   
     967;   862.4774;           48   
     968;   863.3526;           44   
     969;   864.2279;           48   
     970;   865.1032;           45   
     971;   865.9785;           25   
     972;   866.8537;           41   
     973;   867.7290;           49   
     974;   868.6043;           41   
     975;   869.4796;           37   
     976;   870.3548;           43   
     977;   871.2301;           37   
     978;   872.1054;           50   
     979;   872.9807;           42   
     980;   873.8559;           45   
     981;   874.7312;           64   
     982;   875.6065;          169   
     983;   876.4818;          304   
     984;   877.3570;          182   
     985;   878.2323;           63   
     986;   879.1076;           45   
     987;   879.9829;           41   
     988;   880.8581;           36   
     989;   881.7334;           42   
     990;   882.6087;           45   
     991;   883.4840;           36   
     992;   884.3592;           37   
     993;   885.2345;           34   
     994;   886.1098;           31   
     995;   886.9851;           45   
     996;   887.8603;           37   
     997;   888.7356;           34   
     998;   889.6109;           37   
     999;   890.4862;           25   
    1000;   891.3614;           39   
    1001;   892.2367;           41   
    1002;   893.1120;           34   
    1003;   893.9873;           33   
    1004;   894.8625;           39   
    1005;   895.7378;           39   
    1006;   896.6131;           33   
    1007;   897.4884;           39   
    1008;   898.3636;           35   
    1009;   899.2389;           41   
    1010;   900.1142;           29   
    1011;   900.9895;           31   
    1012;   901.8647;           42   
    1013;   902.7400;           26   
    1014;   903.6153;           27   
    1015;   904.4906;           46   
    1016;   905.3658;           33   
    1017;   906.2411;           35   
    1018;   907.1164;           33   
    1019;   907.9917;           36   
    1020;   908.8669;           30   
    1021;   909.7422;           35   
    1022;   910.6175;           31   
    1023;   911.4928;           37   
    1024;   912.3680;           37   
    1025;   913.2433;           28   
    1026;   914.1186;           41   
    1027;   914.9939;           41   
    1028;   915.8691;           28   
    1029;   916.7444;           26   
    1030;   917.6197;           29   
    1031;   918.4950;           24   
    1032;   919.3702;           38   
    1033;   920.2455;           49   
    1034;   921.1208;           52   
    1035;   921.9961;           28   
    1036;   922.8713;           36   
    1037;   923.7466;           26   
    1038;   924.6219;           29   
    1039;   925.4972;           26   
    1040;   926.3724;           36   
    1041;   927.2477;           30   
    1042;   928.1230;           46   
    1043;   928.9983;           47   
    1044;   929.8735;           37   
    1045;   930.7488;           30   
    1046;   931.6241;           36   
    1047;   932.4994;           18   
    1048;   933.3746;           20   
    1049;   934.2499;           34   
    1050;   935.1252;           32   
    1051;   936.0005;           31   
    1052;   936.8757;           41   
    1053;   937.7510;           30   
    1054;   938.6263;           32   
    1055;   939.5016;           24   
    1056;   940.3768;           29   
    1057;   941.2521;           26   
    1058;   942.1274;           27   
    1059;   943.0027;           26   
    1060;   943.8779;           33   
    1061;   944.7532;           30   
    1062;   945.6285;           32   
    1063;   946.5038;           26   
    1064;   947.3790;           35   
    1065;   948.2543;           28   
    1066;   949.1296;           29   
    1067;   950.0049;           35   
    1068;   950.8801;           31   
    1069;   951.7554;           23   
    1070;   952.6307;           30   
    1071;   953.5060;           32   
    1072;   954.3812;           27   
    1073;   955.2565;           28   
    1074;   956.1318;           23   
    1075;   957.0071;           24   
    1076;   957.8823;           33   
    1077;   958.7576;           26   
    1078;   959.6329;           28   
    1079;   960.5082;           35   
    1080;   961.3834;           32   
    1081;   962.2587;           25   
    1082;   963.1340;           17   
    1083;   964.0093;           21   
    1084;   964.8845;           25   
    1085;   965.7598;           30   
    1086;   966.6351;           23   
    1087;   967.5104;           29   
    1088;   968.3856;           33   
    1089;   969.2609;           23   
    1090;   970.1362;           31   
    1091;   971.0115;           41   
    1092;   971.8867;          138   
    1093;   972.7620;          400   
    1094;   973.6373;          733   
    1095;   974.5126;          555   
    1096;   975.3878;          189   
    1097;   976.2631;           47   
    1098;   977.1384;           27   
    1099;   978.0137;           23   
    1100;   978.8889;           32   
    1101;   979.7642;           31   
    1102;   980.6395;           20   
    1103;   981.5148;           20   
    1104;   982.3900;           25   
    1105;   983.2653;           26   
    1106;   984.1406;           22   
    1107;   985.0159;           19   
    1108;   985.8911;           24   
    1109;   986.7664;           21   
    1110;   987.6417;           21   
    1111;   988.5170;           19   
    1112;   989.3922;           31   
    1113;   990.2675;           26   
    1114;   991.1428;           29   
    1115;   992.0181;           14   
    1116;   992.8933;           27   
    1117;   993.7686;           29   
    1118;   994.6439;           26   
    1119;   995.5192;           25   
    1120;   996.3944;           16   
    1121;   997.2697;           20   
    1122;   998.1450;           13   
    1123;   999.0203;           17   
    1124;   999.8955;           28   
    1125;  1000.7708;           35   
    1126;  1001.6461;           29   
    1127;  1002.5214;           16   
    1128;  1003.3966;           22   
    1129;  1004.2719;           19   
    1130;  1005.1472;           27   
    1131;  1006.0225;           20   
    1132;  1006.8977;           30   
    1133;  1007.7730;           21   
    1134;  1008.6483;           26   
    1135;  1009.5236;           16   
    1136;  1010.3988;           20   
    1137;  1011.2741;           25   
    1138;  1012.1494;           23   
    1139;  1013.0247;           20   
    1140;  1013.8999;           41   
    1141;  1014.7752;           44   
    1142;  1015.6505;           51   
    1143;  1016.5258;           37   
    1144;  1017.4010;           24   
    1145;  1018.2763;           12   
    1146;  1019.1516;           24   
    1147;  1020.0269;           13   
    1148;  1020.9021;           15   
    1149;  1021.7774;           16   
    1150;  1022.6527;           25   
    1151;  1023.5280;           20   
    1152;  1024.4032;           16   
    1153;  1025.2785;           27   
    1154;  1026.1538;           18   
    1155;  1027.0291;           19   
    1156;  1027.9043;           23   
    1157;  1028.7796;           18   
    1158;  1029.6549;           22   
    1159;  1030.5302;           16   
    1160;  1031.4054;           19   
    1161;  1032.2807;           18   
    1162;  1033.1560;           17   
    1163;  1034.0313;           24   
    1164;  1034.9065;           15   
    1165;  1035.7818;           15   
    1166;  1036.6571;           22   
    1167;  1037.5324;           26   
    1168;  1038.4076;           19   
    1169;  1039.2829;           16   
    1170;  1040.1582;           20   
    1171;  1041.0335;           18   
    1172;  1041.9087;           23   
    1173;  1042.7840;           17   
    1174;  1043.6593;           26   
    1175;  1044.5346;           28   
    1176;  1045.4098;           16   
    1177;  1046.2851;           17   
    1178;  1047.1604;           23   
    1179;  1048.0357;           18   
    1180;  1048.9109;           23   
    1181;  1049.7862;           14   
    1182;  1050.6615;           17   
    1183;  1051.5368;           16   
    1184;  1052.4120;           22   
    1185;  1053.2873;           22   
    1186;  1054.1626;           20   
    1187;  1055.0379;           16   
    1188;  1055.9131;           15   
    1189;  1056.7884;           19   
    1190;  1057.6637;           17   
    1191;  1058.5390;           14   
    1192;  1059.4142;           22   
    1193;  1060.2895;           16   
    1194;  1061.1648;           24   
    1195;  1062.0401;           21   
    1196;  1062.9153;           17   
    1197;  1063.7906;           19   
    1198;  1064.6659;           15   
    1199;  1065.5412;           19   
    1200;  1066.4164;           19   
    1201;  1067.2917;           15   
    1202;  1068.1670;           20   
    1203;  1069.0423;           19   
    1204;  1069.9175;           19   
    1205;  1070.7928;           28   
    1206;  1071.6681;           23   
    1207;  1072.5434;           20   
    1208;  1073.4186;           22   
    1209;  1074.2939;           23   
    1210;  1075.1692;           18   
    1211;  1076.0445;           24   
    1212;  1076.9197;           17   
    1213;  1077.7950;           29   
    1214;  1078.6703;           17   
    1215;  1079.5456;           13   
    1216;  1080.4208;           19   
    1217;  1081.2961;           19   
    1218;  1082.1714;           15   
    1219;  1083.0467;           17   
    1220;  1083.9219;           26   
    1221;  1084.7972;           10   
    1222;  1085.6725;           22   
    1223;  1086.5478;           18   
    1224;  1087.4230;           19   
    1225;  1088.2983;           23   
    1226;  1089.1736;           16   
    1227;  1090.0489;           23   
    1228;  1090.9241;           20   
    1229;  1091.7994;           22   
    1230;  1092.6747;           14   
    1231;  1093.5500;           25   
    1232;  1094.4252;           57   
    1233;  1095.3005;          200   
    1234;  1096.1758;          440   
    1235;  1097.0511;          372   
    1236;  1097.9263;          145   
    1237;  1098.8016;           55   
    1238;  1099.6769;           88   
    1239;  1100.5522;          108   
    1240;  1101.4274;           61   
    1241;  1102.3027;           28   
    1242;  1103.1780;           36   
    1243;  1104.0533;           25   
    1244;  1104.9285;           27   
    1245;  1105.8038;           16   
    1246;  1106.6791;           17   
    1247;  1107.5544;           19   
    1248;  1108.4296;           23   
    1249;  1109.3049;           21   
    1250;  1110.1802;           20   
    1251;  1111.0555;           15   
    1252;  1111.9307;           26   
    1253;  1112.8060;           19   
    1254;  1113.6813;           21   
    1255;  1114.5566;           22   
    1256;  1115.4318;           24   
    1257;  1116.3071;           18   
    1258;  1117.1824;           13   
    1259;  1118.0577;           18   
    1260;  1118.9329;           25   
    1261;  1119.8082;           30   
    1262;  1120.6835;           85   
    1263;  1121.5588;          235   
    1264;  1122.4340;          558   
    1265;  1123.3093;          529   
    1266;  1124.1846;          249   
    1267;  1125.0599;           62   
    1268;  1125.9351;           25   
    1269;  1126.8104;           20   
    1270;  1127.6857;           16   
    1271;  1128.5610;           14   
    1272;  1129.4362;           27   
    1273;  1130.3115;           34   
    1274;  1131.1868;           38   
    1275;  1132.0621;           25   
    1276;  1132.9373;           17   
    1277;  1133.8126;           24   
    1278;  1134.6879;           20   
    1279;  1135.5632;           15   
    1280;  1136.4384;           17   
    1281;  1137.3137;           20   
    1282;  1138.1890;           16   
    1283;  1139.0643;           22   
    1284;  1139.9395;           21   
    1285;  1140.8148;           24   
    1286;  1141.6901;           21   
    1287;  1142.5654;           19   
    1288;  1143.4406;           22   
    1289;  1144.3159;           30   
    1290;  1145.1912;           20   
    1291;  1146.0665;           22   
    1292;  1146.9417;           34   
    1293;  1147.8170;           31   
    1294;  1148.6923;           17   
    1295;  1149.5676;           18   
    1296;  1150.4428;           12   
    1297;  1151.3181;           19   
    1298;  1152.1934;           24   
    1299;  1153.0687;           28   
    1300;  1153.9439;           33   
    1301;  1154.8192;           15   
    1302;  1155.6945;           16   
    1303;  1156.5698;           23   
    1304;  1157.4450;           22   
    1305;  1158.3203;           20   
    1306;  1159.1956;           17   
    1307;  1160.0709;           20   
    1308;  1160.9461;           26   
    1309;  1161.8214;           28   
    1310;  1162.6967;           23   
    1311;  1163.5720;           27   
    1312;  1164.4472;           27   
    1313;  1165.3225;           20   
    1314;  1166.1978;           28   
    1315;  1167.0731;           26   
    1316;  1167.9483;           24   
    1317;  1168.8236;           21   
    1318;  1169.6989;           28   
    1319;  1170.5742;           23   
    1320;  1171.4494;           27   
    1321;  1172.3247;           26   
    1322;  1173.2000;           23   
    1323;  1174.0753;           22   
    1324;  1174.9505;           19   
    1325;  1175.8258;           20   
    1326;  1176.7011;           16   
    1327;  1177.5764;           19   
    1328;  1178.4516;           16   
    1329;  1179.3269;           15   
    1330;  1180.2022;           22   
    1331;  1181.0775;           21   
    1332;  1181.9527;           30   
    1333;  1182.8280;           28   
    1334;  1183.7033;           14   
    1335;  1184.5786;           20   
    1336;  1185.4538;           18   
    1337;  1186.3291;           22   
    1338;  1187.2044;           17   
    1339;  1188.0797;           31   
    1340;  1188.9549;           19   
    1341;  1189.8302;           27   
    1342;  1190.7055;           30   
    1343;  1191.5808;           21   
    1344;  1192.4560;           17   
    1345;  1193.3313;           25   
    1346;  1194.2066;           21   
    1347;  1195.0819;           15   
    1348;  1195.9571;           17   
    1349;  1196.8324;           11   
    1350;  1197.7077;           21   
    1351;  1198.5830;           19   
    1352;  1199.4582;           19   
    1353;  1200.3335;           20   
    1354;  1201.2088;           13   
    1355;  1202.0841;           18   
    1356;  1202.9593;           19   
    1357;  1203.8346;           11   
    1358;  1204.7099;           21   
    1359;  1205.5852;           19   
    1360;  1206.4604;           13   
    1361;  1207.3357;           19   
    1362;  1208.2110;           26   
    1363;  1209.0863;           15   
    1364;  1209.9615;           18   
    1365;  1210.8368;           14   
    1366;  1211.7121;           11   
    1367;  1212.5874;           16   
    1368;  1213.4626;           27   
    1369;  1214.3379;           24   
    1370;  1215.2132;           12   
    1371;  1216.0885;           15   
    1372;  1216.9637;           23   
    1373;  1217.8390;           24   
    1374;  1218.7143;           18   
    1375;  1219.5896;           14   
    1376;  1220.4648;           14   
    1377;  1221.3401;           15   
    1378;  1222.2154;           24   
    1379;  1223.0907;           31   
    1380;  1223.9659;           60   
    1381;  1224.8412;           58   
    1382;  1225.7165;           38   
    1383;  1226.5918;           10   
    1384;  1227.4670;           16   
    1385;  1228.3423;           16   
    1386;  1229.2176;           10   
    1387;  1230.0929;           13   
    1388;  1230.9681;           17   
    1389;  1231.8434;           18   
    1390;  1232.7187;           20   
    1391;  1233.5940;           18   
    1392;  1234.4692;           22   
    1393;  1235.3445;           19   
    1394;  1236.2198;           17   
    1395;  1237.0951;            8   
    1396;  1237.9703;           16   
    1397;  1238.8456;           17   
    1398;  1239.7209;           15   
    1399;  1240.5962;            7   
    1400;  1241.4714;           15   
    1401;  1242.3467;           16   
    1402;  1243.2220;           12   
    1403;  1244.0973;           11   
    1404;  1244.9725;           17   
    1405;  1245.8478;           10   
    1406;  1246.7231;           12   
    1407;  1247.5984;           17   
    1408;  1248.4736;           15   
    1409;  1249.3489;           16   
    1410;  1250.2242;           17   
    1411;  1251.0995;           16   
    1412;  1251.9747;           20   
    1413;  1252.8500;           22   
    1414;  1253.7253;           11   
    1415;  1254.6006;           13   
    1416;  1255.4758;           16   
    1417;  1256.3511;           14   
    1418;  1257.2264;           11   
    1419;  1258.1017;           14   
    1420;  1258.9769;           12   
    1421;  1259.8522;           13   
    1422;  1260.7275;           15   
    1423;  1261.6028;           25   
    1424;  1262.4780;           16   
    1425;  1263.3533;           16   
    1426;  1264.2286;           12   
    1427;  1265.1039;            8   
    1428;  1265.9791;           14   
    1429;  1266.8544;           23   
    1430;  1267.7297;            6   
    1431;  1268.6050;           10   
    1432;  1269.4802;            9   
    1433;  1270.3555;           12   
    1434;  1271.2308;           10   
    1435;  1272.1061;           16   
    1436;  1272.9813;           17   
    1437;  1273.8566;           16   
    1438;  1274.7319;            7   
    1439;  1275.6072;            5   
    1440;  1276.4824;            8   
    1441;  1277.3577;           16   
    1442;  1278.2330;           11   
    1443;  1279.1083;           11   
    1444;  1279.9835;            8   
    1445;  1280.8588;           10   
    1446;  1281.7341;           10   
    1447;  1282.6094;           11   
    1448;  1283.4846;            9   
    1449;  1284.3599;           12   
    1450;  1285.2352;           16   
    1451;  1286.1105;           17   
    1452;  1286.9857;           14   
    1453;  1287.8610;           13   
    1454;  1288.7363;            9   
    1455;  1289.6116;            8   
    1456;  1290.4868;           13   
    1457;  1291.3621;            8   
    1458;  1292.2374;            8   
    1459;  1293.1127;           10   
    1460;  1293.9879;            7   
    1461;  1294.8632;            9   
    1462;  1295.7385;            2   
    1463;  1296.6138;            8   
    1464;  1297.4890;           10   
    1465;  1298.3643;           10   
    1466;  1299.2396;            8   
    1467;  1300.1149;            4   
    1468;  1300.9901;            6   
    1469;  1301.8654;           11   
    1470;  1302.7407;           12   
    1471;  1303.6160;            8   
    1472;  1304.4912;            9   
    1473;  1305.3665;           11   
    1474;  1306.2418;            8   
    1475;  1307.1171;            7   
    1476;  1307.9923;            8   
    1477;  1308.8676;           12   
    1478;  1309.7429;           26   
    1479;  1310.6182;           65   
    1480;  1311.4934;           59   
    1481;  1312.3687;           33   
    1482;  1313.2440;           16   
    1483;  1314.1193;            6   
    1484;  1314.9945;            6   
    1485;  1315.8698;           10   
    1486;  1316.7451;            7   
    1487;  1317.6204;            3   
    1488;  1318.4956;            5   
    1489;  1319.3709;            3   
    1490;  1320.2462;            4   
    1491;  1321.1215;            8   
    1492;  1321.9967;            5   
    1493;  1322.8720;            5   
    1494;  1323.7473;            8   
    1495;  1324.6226;            3   
    1496;  1325.4978;            8   
    1497;  1326.3731;           10   
    1498;  1327.2484;            8   
    1499;  1328.1237;           11   
    1500;  1328.9989;            2   
    1501;  1329.8742;            5   
    1502;  1330.7495;            5   
    1503;  1331.6248;            3   
    1504;  1332.5000;            5   
    1505;  1333.3753;            5   
    1506;  1334.2506;            5   
    1507;  1335.1259;            2   
    1508;  1336.0011;            4   
    1509;  1336.8764;            7   
    1510;  1337.7517;            6   
    1511;  1338.6270;            6   
    1512;  1339.5022;            5   
    1513;  1340.3775;            4   
    1514;  1341.2528;            7   
    1515;  1342.1281;            7   
    1516;  1343.0033;            2   
    1517;  1343.8786;            5   
    1518;  1344.7539;            3   
    1519;  1345.6292;            4   
    1520;  1346.5044;            5   
    1521;  1347.3797;            4   
    1522;  1348.2550;            1   
    1523;  1349.1303;            8   
    1524;  1350.0055;            5   
    1525;  1350.8808;            6   
    1526;  1351.7561;            6   
    1527;  1352.6314;            7   
    1528;  1353.5066;            2   
    1529;  1354.3819;            1   
    1530;  1355.2572;            2   
    1531;  1356.1325;            3   
    1532;  1357.0077;            4   
    1533;  1357.8830;            1   
    1534;  1358.7583;            2   
    1535;  1359.6336;            4   
    1536;  1360.5088;            7   
    1537;  1361.3841;           12   
    1538;  1362.2594;            5   
    1539;  1363.1347;            4   
    1540;  1364.0099;            8   
    1541;  1364.8852;            2   
    1542;  1365.7605;            4   
    1543;  1366.6358;            6   
    1544;  1367.5110;            0   
    1545;  1368.3863;            7   
    1546;  1369.2616;            5   
    1547;  1370.1369;            3   
    1548;  1371.0121;            4   
    1549;  1371.8874;            4   
    1550;  1372.7627;            4   
    1551;  1373.6380;            3   
    1552;  1374.5132;            6   
    1553;  1375.3885;            8   
    1554;  1376.2638;            2   
    1555;  1377.1391;            3   
    1556;  1378.0143;            4   
    1557;  1378.8896;            5   
    1558;  1379.7649;            2   
    1559;  1380.6402;            4   
    1560;  1381.5154;            4   
    1561;  1382.3907;            0   
    1562;  1383.2660;            0   
    1563;  1384.1413;            2   
    1564;  1385.0165;            6   
    1565;  1385.8918;            4   
    1566;  1386.7671;            4   
    1567;  1387.6424;            5   
    1568;  1388.5176;            7   
    1569;  1389.3929;           10   
    1570;  1390.2682;            9   
    1571;  1391.1435;            6   
    1572;  1392.0187;            2   
    1573;  1392.8940;            3   
    1574;  1393.7693;            2   
    1575;  1394.6446;            2   
    1576;  1395.5198;            3   
    1577;  1396.3951;            1   
    1578;  1397.2704;            4   
    1579;  1398.1457;            3   
    1580;  1399.0209;            1   
    1581;  1399.8962;            1   
    1582;  1400.7715;            0   
    1583;  1401.6468;            2   
    1584;  1402.5220;            5   
    1585;  1403.3973;            2   
    1586;  1404.2726;            5   
    1587;  1405.1479;            0   
    1588;  1406.0231;            3   
    1589;  1406.8984;            7   
    1590;  1407.7737;            4   
    1591;  1408.6490;            4   
    1592;  1409.5242;            5   
    1593;  1410.3995;            7   
    1594;  1411.2748;            3   
    1595;  1412.1501;            4   
    1596;  1413.0253;            0   
    1597;  1413.9006;            5   
    1598;  1414.7759;            7   
    1599;  1415.6512;            3   
    1600;  1416.5264;            6   
    1601;  1417.4017;           19   
    1602;  1418.2770;           63   
    1603;  1419.1523;          222   
    1604;  1420.0275;          539   
    1605;  1420.9028;          691   
    1606;  1421.7781;          417   
    1607;  1422.6534;          130   
    1608;  1423.5286;           26   
    1609;  1424.4039;            7   
    1610;  1425.2792;            6   
    1611;  1426.1545;            5   
    1612;  1427.0297;            4   
    1613;  1427.9050;            1   
    1614;  1428.7803;            2   
    1615;  1429.6556;            2   
    1616;  1430.5308;            7   
    1617;  1431.4061;            3   
    1618;  1432.2814;            5   
    1619;  1433.1567;            4   
    1620;  1434.0319;            5   
    1621;  1434.9072;            2   
    1622;  1435.7825;            3   
    1623;  1436.6578;            2   
    1624;  1437.5330;            1   
    1625;  1438.4083;            3   
    1626;  1439.2836;            1   
    1627;  1440.1589;            0   
    1628;  1441.0341;            1   
    1629;  1441.9094;            2   
    1630;  1442.7847;            1   
    1631;  1443.6600;            2   
    1632;  1444.5352;            1   
    1633;  1445.4105;            5   
    1634;  1446.2858;            2   
    1635;  1447.1611;            3   
    1636;  1448.0363;            1   
    1637;  1448.9116;            4   
    1638;  1449.7869;            6   
    1639;  1450.6622;            2   
    1640;  1451.5374;            2   
    1641;  1452.4127;            2   
    1642;  1453.2880;            1   
    1643;  1454.1633;            2   
    1644;  1455.0385;            3   
    1645;  1455.9138;            0   
    1646;  1456.7891;            2   
    1647;  1457.6644;            3   
    1648;  1458.5396;            0   
    1649;  1459.4149;            5   
    1650;  1460.2902;            2   
    1651;  1461.1655;            5   
    1652;  1462.0407;            0   
    1653;  1462.9160;            2   
    1654;  1463.7913;            2   
    1655;  1464.6666;            5   
    1656;  1465.5418;            4   
    1657;  1466.4171;            5   
    1658;  1467.2924;            4   
    1659;  1468.1677;            4   
    1660;  1469.0429;            4   
    1661;  1469.9182;           13   
    1662;  1470.7935;           30   
    1663;  1471.6688;           49   
    1664;  1472.5440;          121   
    1665;  1473.4193;          216   
    1666;  1474.2946;          180   
    1667;  1475.1699;           84   
    1668;  1476.0451;           31   
    1669;  1476.9204;            4   
    1670;  1477.7957;            1   
    1671;  1478.6710;            2   
    1672;  1479.5462;            1   
    1673;  1480.4215;            1   
    1674;  1481.2968;            0   
    1675;  1482.1721;            3   
    1676;  1483.0473;            0   
    1677;  1483.9226;            2   
    1678;  1484.7979;            0   
    1679;  1485.6732;            1   
    1680;  1486.5484;            4   
    1681;  1487.4237;            3   
    1682;  1488.2990;            3   
    1683;  1489.1743;            0   
    1684;  1490.0495;            4   
    1685;  1490.9248;            0   
    1686;  1491.8001;            2   
    1687;  1492.6754;            1   
    1688;  1493.5506;            2   
    1689;  1494.4259;            0   
    1690;  1495.3012;            1   
    1691;  1496.1765;            2   
    1692;  1497.0517;            1   
    1693;  1497.9270;            1   
    1694;  1498.8023;            1   
    1695;  1499.6776;            3   
    1696;  1500.5528;            1   
    1697;  1501.4281;            3   
    1698;  1502.3034;            1   
    1699;  1503.1787;            0   
    1700;  1504.0539;            0   
    1701;  1504.9292;            0   
    1702;  1505.8045;            0   
    1703;  1506.6798;            2   
    1704;  1507.5550;            4   
    1705;  1508.4303;            3   
    1706;  1509.3056;            1   
    1707;  1510.1809;            1   
    1708;  1511.0561;            1   
    1709;  1511.9314;            4   
    1710;  1512.8067;            3   
    1711;  1513.6820;            2   
    1712;  1514.5572;            1   
    1713;  1515.4325;            2   
    1714;  1516.3078;            1   
    1715;  1517.1831;            1   
    1716;  1518.0583;            2   
    1717;  1518.9336;            3   
    1718;  1519.8089;            2   
    1719;  1520.6842;            3   
    1720;  1521.5594;            3   
    1721;  1522.4347;            3   
    1722;  1523.3100;            4   
    1723;  1524.1853;            1   
    1724;  1525.0605;            0   
    1725;  1525.9358;            0   
    1726;  1526.8111;            1   
    1727;  1527.6864;            3   
    1728;  1528.5616;            2   
    1729;  1529.4369;            1   
    1730;  1530.3122;            3   
    1731;  1531.1875;            2   
    1732;  1532.0627;            1   
    1733;  1532.9380;            1   
    1734;  1533.8133;            1   
    1735;  1534.6886;            1   
    1736;  1535.5638;            2   
    1737;  1536.4391;            0   
    1738;  1537.3144;            2   
    1739;  1538.1897;            2   
    1740;  1539.0649;            1   
    1741;  1539.9402;            0   
    1742;  1540.8155;           10   
    1743;  1541.6908;            9   
    1744;  1542.5660;            4   
    1745;  1543.4413;            4   
    1746;  1544.3166;            4   
    1747;  1545.1919;            0   
    1748;  1546.0671;            1   
    1749;  1546.9424;            0   
    1750;  1547.8177;            2   
    1751;  1548.6930;            1   
    1752;  1549.5682;            2   
    1753;  1550.4435;            3   
    1754;  1551.3188;            0   
    1755;  1552.1941;            2   
    1756;  1553.0693;            2   
    1757;  1553.9446;            1   
    1758;  1554.8199;            4   
    1759;  1555.6952;            1   
    1760;  1556.5704;            2   
    1761;  1557.4457;            0   
    1762;  1558.3210;            1   
    1763;  1559.1963;            1   
    1764;  1560.0715;            1   
    1765;  1560.9468;            2   
    1766;  1561.8221;            2   
    1767;  1562.6974;            1   
    1768;  1563.5726;            3   
    1769;  1564.4479;            0   
    1770;  1565.3232;            2   
    1771;  1566.1985;            0   
    1772;  1567.0737;            0   
    1773;  1567.9490;            0   
    1774;  1568.8243;            1   
    1775;  1569.6996;            0   
    1776;  1570.5748;            2   
    1777;  1571.4501;            0   
    1778;  1572.3254;            2   
    1779;  1573.2007;            1   
    1780;  1574.0759;            2   
    1781;  1574.9512;            2   
    1782;  1575.8265;            3   
    1783;  1576.7018;            4   
    1784;  1577.5770;            2   
    1785;  1578.4523;            3   
    1786;  1579.3276;            0   
    1787;  1580.2029;            0   
    1788;  1581.0781;            1   
    1789;  1581.9534;            3   
    1790;  1582.8287;            0   
    1791;  1583.7040;            1   
    1792;  1584.5792;            2   
    1793;  1585.4545;            2   
    1794;  1586.3298;            2   
    1795;  1587.2051;            1   
    1796;  1588.0803;            1   
    1797;  1588.9556;            0   
    1798;  1589.8309;            0   
    1799;  1590.7062;            0   
    1800;  1591.5814;            0   
    1801;  1592.4567;            2   
    1802;  1593.3320;            0   
    1803;  1594.2073;            1   
    1804;  1595.0825;            1   
    1805;  1595.9578;            4   
    1806;  1596.8331;            1   
    1807;  1597.7084;            1   
    1808;  1598.5836;            0   
    1809;  1599.4589;            2   
    1810;  1600.3342;            0   
    1811;  1601.2095;            1   
    1812;  1602.0847;            1   
    1813;  1602.9600;            2   
    1814;  1603.8353;            0   
    1815;  1604.7106;            3   
    1816;  1605.5858;            3   
    1817;  1606.4611;            5   
    1818;  1607.3364;            5   
    1819;  1608.2117;            1   
    1820;  1609.0869;            0   
    1821;  1609.9622;            1   
    1822;  1610.8375;            2   
    1823;  1611.7128;            1   
    1824;  1612.5880;            1   
    1825;  1613.4633;            0   
    1826;  1614.3386;            0   
    1827;  1615.2139;            2   
    1828;  1616.0891;            1   
    1829;  1616.9644;            2   
    1830;  1617.8397;            4   
    1831;  1618.7150;            0   
    1832;  1619.5902;            2   
    1833;  1620.4655;            1   
    1834;  1621.3408;            2   
    1835;  1622.2161;            1   
    1836;  1623.0913;            0   
    1837;  1623.9666;            1   
    1838;  1624.8419;            2   
    1839;  1625.7172;            0   
    1840;  1626.5924;            2   
    1841;  1627.4677;            1   
    1842;  1628.3430;            1   
    1843;  1629.2183;            3   
    1844;  1630.0935;            2   
    1845;  1630.9688;            1   
    1846;  1631.8441;            2   
    1847;  1632.7194;            1   
    1848;  1633.5946;            4   
    1849;  1634.4699;            1   
    1850;  1635.3452;            0   
    1851;  1636.2205;            1   
    1852;  1637.0957;            0   
    1853;  1637.9710;            0   
    1854;  1638.8463;            0   
    1855;  1639.7216;            0   
    1856;  1640.5968;            0   
    1857;  1641.4721;            1   
    1858;  1642.3474;            1   
    1859;  1643.2227;            2   
    1860;  1644.0979;            2   
    1861;  1644.9732;            3   
    1862;  1645.8485;            3   
    1863;  1646.7238;            2   
    1864;  1647.5990;            1   
    1865;  1648.4743;            0   
    1866;  1649.3496;            2   
    1867;  1650.2249;            2   
    1868;  1651.1001;            1   
    1869;  1651.9754;            1   
    1870;  1652.8507;            2   
    1871;  1653.7260;            2   
    1872;  1654.6012;            1   
    1873;  1655.4765;            1   
    1874;  1656.3518;            0   
    1875;  1657.2271;            1   
    1876;  1658.1023;            2   
    1877;  1658.9776;            0   
    1878;  1659.8529;            1   
    1879;  1660.7282;            2   
    1880;  1661.6034;            1   
    1881;  1662.4787;            0   
    1882;  1663.3540;            0   
    1883;  1664.2293;            2   
    1884;  1665.1045;            1   
    1885;  1665.9798;            0   
    1886;  1666.8551;            1   
    1887;  1667.7304;            0   
    1888;  1668.6056;            2   
    1889;  1669.4809;            0   
    1890;  1670.3562;            2   
    1891;  1671.2315;            4   
    1892;  1672.1067;            0   
    1893;  1672.9820;            1   
    1894;  1673.8573;            4   
    1895;  1674.7326;            1   
    1896;  1675.6078;            1   
    1897;  1676.4831;            1   
    1898;  1677.3584;            1   
    1899;  1678.2337;            0   
    1900;  1679.1089;            0   
    1901;  1679.9842;            1   
    1902;  1680.8595;            0   
    1903;  1681.7348;            1   
    1904;  1682.6100;            0   
    1905;  1683.4853;            0   
    1906;  1684.3606;            0   
    1907;  1685.2359;            1   
    1908;  1686.1111;            1   
    1909;  1686.9864;            0   
    1910;  1687.8617;            0   
    1911;  1688.7370;            1   
    1912;  1689.6122;            4   
    1913;  1690.4875;            2   
    1914;  1691.3628;            1   
    1915;  1692.2381;            2   
    1916;  1693.1133;            2   
    1917;  1693.9886;            1   
    1918;  1694.8639;            0   
    1919;  1695.7392;            0   
    1920;  1696.6144;            2   
    1921;  1697.4897;            2   
    1922;  1698.3650;            0   
    1923;  1699.2403;            1   
    1924;  1700.1155;            3   
    1925;  1700.9908;            2   
    1926;  1701.8661;            2   
    1927;  1702.7414;            2   
    1928;  1703.6166;            0   
    1929;  1704.4919;            0   
    1930;  1705.3672;            0   
    1931;  1706.2425;            0   
    1932;  1707.1177;            2   
    1933;  1707.9930;            1   
    1934;  1708.8683;            1   
    1935;  1709.7436;            2   
    1936;  1710.6188;            2   
    1937;  1711.4941;            0   
    1938;  1712.3694;            0   
    1939;  1713.2447;            0   
    1940;  1714.1199;            0   
    1941;  1714.9952;            0   
    1942;  1715.8705;            2   
    1943;  1716.7458;            0   
    1944;  1717.6210;            1   
    1945;  1718.4963;            2   
    1946;  1719.3716;            0   
    1947;  1720.2469;            1   
    1948;  1721.1221;            1   
    1949;  1721.9974;            0   
    1950;  1722.8727;            0   
    1951;  1723.7480;            4   
    1952;  1724.6232;            0   
    1953;  1725.4985;            0   
    1954;  1726.3738;            1   
    1955;  1727.2491;            2   
    1956;  1728.1243;            1   
    1957;  1728.9996;            0   
    1958;  1729.8749;            1   
    1959;  1730.7502;            0   
    1960;  1731.6254;            1   
    1961;  1732.5007;            0   
    1962;  1733.3760;            2   
    1963;  1734.2513;            0   
    1964;  1735.1265;            0   
    1965;  1736.0018;            1   
    1966;  1736.8771;            0   
    1967;  1737.7524;            0   
    1968;  1738.6276;            0   
    1969;  1739.5029;            0   
    1970;  1740.3782;            1   
    1971;  1741.2535;            1   
    1972;  1742.1287;            3   
    1973;  1743.0040;            2   
    1974;  1743.8793;            3   
    1975;  1744.7546;            3   
    1976;  1745.6298;            1   
    1977;  1746.5051;            0   
    1978;  1747.3804;            0   
    1979;  1748.2557;            0   
    1980;  1749.1309;            0   
    1981;  1750.0062;            0   
    1982;  1750.8815;            0   
    1983;  1751.7568;            0   
    1984;  1752.6320;            0   
    1985;  1753.5073;            0   
    1986;  1754.3826;            0   
    1987;  1755.2579;            0   
    1988;  1756.1331;            0   
    1989;  1757.0084;            0   
    1990;  1757.8837;            0   
    1991;  1758.7590;            0   
    1992;  1759.6342;            0   
    1993;  1760.5095;            0   
    1994;  1761.3848;            0   
    1995;  1762.2601;            0   
    1996;  1763.1353;            0   
    1997;  1764.0106;            0   
    1998;  1764.8859;            0   
    1999;  1765.7612;            0   
    2000;  1766.6364;            0   
    2001;  1767.5117;            0   
    2002;  1768.3870;            0   
    2003;  1769.2623;            0   
    2004;  1770.1375;            0   
    2005;  1771.0128;            0   
    2006;  1771.8881;            0   
    2007;  1772.7634;            0   
    2008;  1773.6386;            0   
    2009;  1774.5139;            0   
    2010;  1775.3892;            0   
    2011;  1776.2645;            0   
    2012;  1777.1397;            0   
    2013;  1778.0150;            0   
    2014;  1778.8903;            0   
    2015;  1779.7656;            0   
    2016;  1780.6408;            0   
    2017;  1781.5161;            0   
    2018;  1782.3914;            0   
    2019;  1783.2667;            0   
    2020;  1784.1419;            0   
    2021;  1785.0172;            0   
    2022;  1785.8925;            0   
    2023;  1786.7678;            0   
    2024;  1787.6430;            0   
    2025;  1788.5183;            0   
    2026;  1789.3936;            0   
    2027;  1790.2689;            0   
    2028;  1791.1441;            0   
    2029;  1792.0194;            0   
    2030;  1792.8947;            0   
    2031;  1793.7700;            0   
    2032;  1794.6452;            0   
    2033;  1795.5205;            0   
    2034;  1796.3958;            0   
    2035;  1797.2711;            0   
    2036;  1798.1463;            0   
    2037;  1799.0216;            0   
    2038;  1799.8969;            0   
    2039;  1800.7722;            0   
    2040;  1801.6474;            0   
    2041;  1802.5227;            0   
    2042;  1803.3980;            0   
    2043;  1804.2733;            0   
    2044;  1805.1485;            0   
    2045;  1806.0238;            0   
    2046;  1806.8991;            0   
    2047;  1807.7744;            0   
    2048;  1808.6496;            0   
ROI Nummer; Anfangskanal; Endkanal; Anfangsenergie keV ; Endenergie keV; Nettoimpulse; Bruttoimpulse; Untergrundimpulse
In den Daten wurden keine Linien gefunden
ROI Nummer; prozentualer Fehler der Lage; Lage keV; FWHM keV; FWTM keV; FWTM/FWHM Verhltnis; H/L Verhltnis
No Peak records found in data.
Name; Energie keV; Flags; Aktivitt uCi/Unit; Aktivittsfehler %; NWG uCi/Unit; MDA Error %
Es wurden keine Nuklidergebnisse gefunden.
Name; Erwartete Endergie keV; Gemessene Energie keV; Differenz von erwarteter keV; FWHM; Flags; Aktivitt uCi/Unit; Aktivittsfehler %
Es wurden keine Nuklidergebnisse gefunden.
