Kanal;   Energie(keV); Impulse
       1;    16.9617;      1770237   
       2;    17.8370;      1587092   
       3;    18.7122;      1424765   
       4;    19.5875;      1277962   
       5;    20.4628;      1146115   
       6;    21.3381;      1020520   
       7;    22.2133;       900631   
       8;    23.0886;       794557   
       9;    23.9639;       693972   
      10;    24.8392;       608761   
      11;    25.7144;       526716   
      12;    26.5897;       457547   
      13;    27.4650;       394360   
      14;    28.3403;       339271   
      15;    29.2155;       291340   
      16;    30.0908;       250416   
      17;    30.9661;       212995   
      18;    31.8414;       182124   
      19;    32.7166;       155333   
      20;    33.5919;       132502   
      21;    34.4672;       112271   
      22;    35.3425;        95388   
      23;    36.2177;        80871   
      24;    37.0930;        68911   
      25;    37.9683;        57520   
      26;    38.8436;        48829   
      27;    39.7188;        41553   
      28;    40.5941;        34675   
      29;    41.4694;        29380   
      30;    42.3447;        24924   
      31;    43.2199;        20827   
      32;    44.0952;        16793   
      33;    44.9705;        13785   
      34;    45.8458;        12006   
      35;    46.7210;        10124   
      36;    47.5963;         8854   
      37;    48.4716;         7373   
      38;    49.3469;         6292   
      39;    50.2221;         5354   
      40;    51.0974;         4526   
      41;    51.9727;         3893   
      42;    52.8480;         3326   
      43;    53.7232;         2849   
      44;    54.5985;         2366   
      45;    55.4738;         2081   
      46;    56.3491;         1697   
      47;    57.2243;         1470   
      48;    58.0996;         1308   
      49;    58.9749;         1171   
      50;    59.8502;          961   
      51;    60.7254;          810   
      52;    61.6007;          731   
      53;    62.4760;          629   
      54;    63.3513;          565   
      55;    64.2265;          560   
      56;    65.1018;          538   
      57;    65.9771;          488   
      58;    66.8524;          384   
      59;    67.7276;          411   
      60;    68.6029;          363   
      61;    69.4782;          353   
      62;    70.3535;          323   
      63;    71.2287;          312   
      64;    72.1040;          287   
      65;    72.9793;          306   
      66;    73.8546;          288   
      67;    74.7298;          292   
      68;    75.6051;          279   
      69;    76.4804;          258   
      70;    77.3557;          234   
      71;    78.2309;          270   
      72;    79.1062;          233   
      73;    79.9815;          235   
      74;    80.8568;          247   
      75;    81.7320;          207   
      76;    82.6073;          204   
      77;    83.4826;          223   
      78;    84.3579;          225   
      79;    85.2331;          232   
      80;    86.1084;          210   
      81;    86.9837;          193   
      82;    87.8590;          220   
      83;    88.7342;          215   
      84;    89.6095;          201   
      85;    90.4848;          203   
      86;    91.3601;          199   
      87;    92.2353;          203   
      88;    93.1106;          198   
      89;    93.9859;          198   
      90;    94.8612;          202   
      91;    95.7364;          212   
      92;    96.6117;          168   
      93;    97.4870;          172   
      94;    98.3623;          193   
      95;    99.2375;          197   
      96;   100.1128;          195   
      97;   100.9881;          183   
      98;   101.8634;          177   
      99;   102.7386;          178   
     100;   103.6139;          208   
     101;   104.4892;          174   
     102;   105.3645;          182   
     103;   106.2397;          197   
     104;   107.1150;          188   
     105;   107.9903;          173   
     106;   108.8656;          194   
     107;   109.7408;          157   
     108;   110.6161;          164   
     109;   111.4914;          171   
     110;   112.3667;          161   
     111;   113.2419;          186   
     112;   114.1172;          176   
     113;   114.9925;          165   
     114;   115.8678;          177   
     115;   116.7430;          157   
     116;   117.6183;          139   
     117;   118.4936;          178   
     118;   119.3689;          159   
     119;   120.2441;          171   
     120;   121.1194;          155   
     121;   121.9947;          186   
     122;   122.8700;          185   
     123;   123.7452;          151   
     124;   124.6205;          179   
     125;   125.4958;          116   
     126;   126.3711;          161   
     127;   127.2463;          170   
     128;   128.1216;          180   
     129;   128.9969;          163   
     130;   129.8722;          137   
     131;   130.7474;          156   
     132;   131.6227;          150   
     133;   132.4980;          147   
     134;   133.3733;          143   
     135;   134.2485;          143   
     136;   135.1238;          150   
     137;   135.9991;          146   
     138;   136.8744;          145   
     139;   137.7496;          134   
     140;   138.6249;          176   
     141;   139.5002;          159   
     142;   140.3755;          158   
     143;   141.2507;          140   
     144;   142.1260;          151   
     145;   143.0013;          148   
     146;   143.8766;          167   
     147;   144.7518;          156   
     148;   145.6271;          146   
     149;   146.5024;          151   
     150;   147.3777;          165   
     151;   148.2529;          119   
     152;   149.1282;          138   
     153;   150.0035;          141   
     154;   150.8788;          160   
     155;   151.7540;          127   
     156;   152.6293;          151   
     157;   153.5046;          141   
     158;   154.3799;          168   
     159;   155.2551;          153   
     160;   156.1304;          162   
     161;   157.0057;          150   
     162;   157.8810;          149   
     163;   158.7562;          144   
     164;   159.6315;          181   
     165;   160.5068;          150   
     166;   161.3821;          137   
     167;   162.2573;          136   
     168;   163.1326;          165   
     169;   164.0079;          174   
     170;   164.8832;          159   
     171;   165.7584;          131   
     172;   166.6337;          142   
     173;   167.5090;          133   
     174;   168.3843;          122   
     175;   169.2595;          136   
     176;   170.1348;          150   
     177;   171.0101;          143   
     178;   171.8854;          162   
     179;   172.7606;          124   
     180;   173.6359;          135   
     181;   174.5112;          153   
     182;   175.3865;          138   
     183;   176.2617;          127   
     184;   177.1370;          134   
     185;   178.0123;          143   
     186;   178.8876;          149   
     187;   179.7628;          170   
     188;   180.6381;          118   
     189;   181.5134;          131   
     190;   182.3887;          141   
     191;   183.2639;          158   
     192;   184.1392;          133   
     193;   185.0145;          133   
     194;   185.8898;          148   
     195;   186.7650;          133   
     196;   187.6403;          124   
     197;   188.5156;          141   
     198;   189.3909;          146   
     199;   190.2661;          117   
     200;   191.1414;          114   
     201;   192.0167;          114   
     202;   192.8920;          126   
     203;   193.7672;          119   
     204;   194.6425;          136   
     205;   195.5178;          111   
     206;   196.3931;          121   
     207;   197.2683;          130   
     208;   198.1436;          117   
     209;   199.0189;          127   
     210;   199.8942;          130   
     211;   200.7694;          121   
     212;   201.6447;          134   
     213;   202.5200;          124   
     214;   203.3953;          119   
     215;   204.2705;          118   
     216;   205.1458;          114   
     217;   206.0211;          122   
     218;   206.8964;          119   
     219;   207.7716;          114   
     220;   208.6469;          108   
     221;   209.5222;          107   
     222;   210.3975;          123   
     223;   211.2727;          107   
     224;   212.1480;          127   
     225;   213.0233;          107   
     226;   213.8986;           96   
     227;   214.7738;          125   
     228;   215.6491;          111   
     229;   216.5244;           98   
     230;   217.3997;          101   
     231;   218.2749;          101   
     232;   219.1502;           99   
     233;   220.0255;          105   
     234;   220.9008;           86   
     235;   221.7760;          103   
     236;   222.6513;          100   
     237;   223.5266;           96   
     238;   224.4019;          106   
     239;   225.2771;           89   
     240;   226.1524;          100   
     241;   227.0277;           98   
     242;   227.9030;           99   
     243;   228.7782;           81   
     244;   229.6535;          101   
     245;   230.5288;           91   
     246;   231.4041;           73   
     247;   232.2793;           77   
     248;   233.1546;           90   
     249;   234.0299;           79   
     250;   234.9052;           91   
     251;   235.7804;           83   
     252;   236.6557;           74   
     253;   237.5310;           74   
     254;   238.4063;           69   
     255;   239.2815;           80   
     256;   240.1568;           69   
     257;   241.0321;           88   
     258;   241.9074;           77   
     259;   242.7826;           72   
     260;   243.6579;           66   
     261;   244.5332;           69   
     262;   245.4085;           72   
     263;   246.2837;           87   
     264;   247.1590;           79   
     265;   248.0343;           72   
     266;   248.9096;           81   
     267;   249.7848;           54   
     268;   250.6601;           64   
     269;   251.5354;           54   
     270;   252.4107;           73   
     271;   253.2859;           67   
     272;   254.1612;           59   
     273;   255.0365;           78   
     274;   255.9118;           59   
     275;   256.7870;           48   
     276;   257.6623;           57   
     277;   258.5376;           55   
     278;   259.4129;           63   
     279;   260.2881;           63   
     280;   261.1634;           55   
     281;   262.0387;           57   
     282;   262.9140;           45   
     283;   263.7892;           56   
     284;   264.6645;           56   
     285;   265.5398;           42   
     286;   266.4151;           49   
     287;   267.2903;           47   
     288;   268.1656;           39   
     289;   269.0409;           44   
     290;   269.9162;           62   
     291;   270.7914;           51   
     292;   271.6667;           37   
     293;   272.5420;           52   
     294;   273.4173;           39   
     295;   274.2925;           43   
     296;   275.1678;           40   
     297;   276.0431;           48   
     298;   276.9184;           44   
     299;   277.7936;           50   
     300;   278.6689;           43   
     301;   279.5442;           43   
     302;   280.4195;           40   
     303;   281.2947;           40   
     304;   282.1700;           36   
     305;   283.0453;           44   
     306;   283.9206;           38   
     307;   284.7958;           39   
     308;   285.6711;           40   
     309;   286.5464;           47   
     310;   287.4217;           39   
     311;   288.2969;           38   
     312;   289.1722;           34   
     313;   290.0475;           35   
     314;   290.9228;           42   
     315;   291.7980;           33   
     316;   292.6733;           30   
     317;   293.5486;           28   
     318;   294.4239;           37   
     319;   295.2991;           41   
     320;   296.1744;           33   
     321;   297.0497;           40   
     322;   297.9250;           38   
     323;   298.8002;           36   
     324;   299.6755;           41   
     325;   300.5508;           28   
     326;   301.4261;           26   
     327;   302.3013;           33   
     328;   303.1766;           31   
     329;   304.0519;           32   
     330;   304.9272;           32   
     331;   305.8024;           36   
     332;   306.6777;           25   
     333;   307.5530;           34   
     334;   308.4283;           34   
     335;   309.3035;           28   
     336;   310.1788;           28   
     337;   311.0541;           29   
     338;   311.9294;           35   
     339;   312.8046;           32   
     340;   313.6799;           25   
     341;   314.5552;           31   
     342;   315.4305;           26   
     343;   316.3057;           31   
     344;   317.1810;           20   
     345;   318.0563;           25   
     346;   318.9316;           25   
     347;   319.8068;           23   
     348;   320.6821;           30   
     349;   321.5574;           26   
     350;   322.4327;           30   
     351;   323.3079;           42   
     352;   324.1832;           21   
     353;   325.0585;           25   
     354;   325.9338;           31   
     355;   326.8090;           23   
     356;   327.6843;           19   
     357;   328.5596;           35   
     358;   329.4349;           25   
     359;   330.3101;           25   
     360;   331.1854;           33   
     361;   332.0607;           26   
     362;   332.9360;           22   
     363;   333.8112;           30   
     364;   334.6865;           28   
     365;   335.5618;           23   
     366;   336.4371;           22   
     367;   337.3123;           20   
     368;   338.1876;           23   
     369;   339.0629;           16   
     370;   339.9382;           23   
     371;   340.8134;           27   
     372;   341.6887;           28   
     373;   342.5640;           19   
     374;   343.4393;           27   
     375;   344.3145;           27   
     376;   345.1898;           36   
     377;   346.0651;           16   
     378;   346.9404;           21   
     379;   347.8156;           27   
     380;   348.6909;           25   
     381;   349.5662;           17   
     382;   350.4415;           27   
     383;   351.3167;           22   
     384;   352.1920;           23   
     385;   353.0673;           24   
     386;   353.9426;           29   
     387;   354.8178;           23   
     388;   355.6931;           35   
     389;   356.5684;           22   
     390;   357.4437;           29   
     391;   358.3189;           25   
     392;   359.1942;           24   
     393;   360.0695;           30   
     394;   360.9448;           23   
     395;   361.8200;           17   
     396;   362.6953;           23   
     397;   363.5706;           23   
     398;   364.4459;           31   
     399;   365.3211;           24   
     400;   366.1964;           25   
     401;   367.0717;           20   
     402;   367.9470;           21   
     403;   368.8222;           21   
     404;   369.6975;           17   
     405;   370.5728;           27   
     406;   371.4481;           29   
     407;   372.3233;           18   
     408;   373.1986;           15   
     409;   374.0739;           22   
     410;   374.9492;           18   
     411;   375.8244;           26   
     412;   376.6997;           28   
     413;   377.5750;           31   
     414;   378.4503;           23   
     415;   379.3255;           23   
     416;   380.2008;           27   
     417;   381.0761;           25   
     418;   381.9514;           20   
     419;   382.8266;           24   
     420;   383.7019;           24   
     421;   384.5772;           19   
     422;   385.4525;           23   
     423;   386.3277;           20   
     424;   387.2030;           18   
     425;   388.0783;           26   
     426;   388.9536;           21   
     427;   389.8288;           29   
     428;   390.7041;           18   
     429;   391.5794;           21   
     430;   392.4547;           21   
     431;   393.3299;           23   
     432;   394.2052;           22   
     433;   395.0805;           22   
     434;   395.9558;           21   
     435;   396.8310;           22   
     436;   397.7063;           28   
     437;   398.5816;           18   
     438;   399.4569;           19   
     439;   400.3321;           19   
     440;   401.2074;           18   
     441;   402.0827;           17   
     442;   402.9580;           15   
     443;   403.8332;           20   
     444;   404.7085;           22   
     445;   405.5838;           21   
     446;   406.4591;           23   
     447;   407.3343;           21   
     448;   408.2096;           22   
     449;   409.0849;           18   
     450;   409.9602;           19   
     451;   410.8354;           31   
     452;   411.7107;           25   
     453;   412.5860;           27   
     454;   413.4613;           25   
     455;   414.3365;           19   
     456;   415.2118;           24   
     457;   416.0871;           23   
     458;   416.9624;           14   
     459;   417.8376;           24   
     460;   418.7129;           26   
     461;   419.5882;           26   
     462;   420.4635;           22   
     463;   421.3387;           13   
     464;   422.2140;           27   
     465;   423.0893;           26   
     466;   423.9646;           19   
     467;   424.8398;           19   
     468;   425.7151;           17   
     469;   426.5904;           19   
     470;   427.4657;           23   
     471;   428.3409;           20   
     472;   429.2162;           27   
     473;   430.0915;           21   
     474;   430.9668;           17   
     475;   431.8420;           16   
     476;   432.7173;           29   
     477;   433.5926;           22   
     478;   434.4679;           30   
     479;   435.3431;           20   
     480;   436.2184;           24   
     481;   437.0937;           24   
     482;   437.9690;           32   
     483;   438.8442;           12   
     484;   439.7195;           19   
     485;   440.5948;           26   
     486;   441.4701;           26   
     487;   442.3453;           14   
     488;   443.2206;           26   
     489;   444.0959;           26   
     490;   444.9712;           16   
     491;   445.8464;           23   
     492;   446.7217;           21   
     493;   447.5970;           20   
     494;   448.4723;           29   
     495;   449.3475;           16   
     496;   450.2228;           11   
     497;   451.0981;           25   
     498;   451.9734;           18   
     499;   452.8486;           14   
     500;   453.7239;           20   
     501;   454.5992;           20   
     502;   455.4745;           24   
     503;   456.3497;           26   
     504;   457.2250;           18   
     505;   458.1003;           15   
     506;   458.9756;           30   
     507;   459.8508;           17   
     508;   460.7261;           15   
     509;   461.6014;           19   
     510;   462.4767;           17   
     511;   463.3519;           16   
     512;   464.2272;           25   
     513;   465.1025;           21   
     514;   465.9778;           36   
     515;   466.8530;           22   
     516;   467.7283;           13   
     517;   468.6036;           20   
     518;   469.4789;           20   
     519;   470.3541;           19   
     520;   471.2294;           20   
     521;   472.1047;           16   
     522;   472.9800;           15   
     523;   473.8552;           17   
     524;   474.7305;           25   
     525;   475.6058;           17   
     526;   476.4811;           16   
     527;   477.3563;           20   
     528;   478.2316;           14   
     529;   479.1069;           19   
     530;   479.9822;           19   
     531;   480.8574;           36   
     532;   481.7327;           19   
     533;   482.6080;           21   
     534;   483.4833;           16   
     535;   484.3585;           22   
     536;   485.2338;           20   
     537;   486.1091;           12   
     538;   486.9844;           17   
     539;   487.8596;           19   
     540;   488.7349;           23   
     541;   489.6102;           16   
     542;   490.4855;           20   
     543;   491.3607;           15   
     544;   492.2360;           31   
     545;   493.1113;           24   
     546;   493.9866;           18   
     547;   494.8618;           20   
     548;   495.7371;           14   
     549;   496.6124;           16   
     550;   497.4877;           26   
     551;   498.3629;           19   
     552;   499.2382;           13   
     553;   500.1135;           21   
     554;   500.9888;           16   
     555;   501.8640;           12   
     556;   502.7393;           25   
     557;   503.6146;           18   
     558;   504.4899;           21   
     559;   505.3651;           21   
     560;   506.2404;           15   
     561;   507.1157;           17   
     562;   507.9910;           14   
     563;   508.8662;           18   
     564;   509.7415;           20   
     565;   510.6168;           18   
     566;   511.4921;           15   
     567;   512.3673;           13   
     568;   513.2426;           12   
     569;   514.1179;           15   
     570;   514.9932;           24   
     571;   515.8684;           17   
     572;   516.7437;           15   
     573;   517.6190;           11   
     574;   518.4943;           23   
     575;   519.3695;           22   
     576;   520.2448;           24   
     577;   521.1201;           11   
     578;   521.9954;           20   
     579;   522.8706;           13   
     580;   523.7459;           17   
     581;   524.6212;           21   
     582;   525.4965;           14   
     583;   526.3717;           13   
     584;   527.2470;           25   
     585;   528.1223;           27   
     586;   528.9976;           29   
     587;   529.8728;           18   
     588;   530.7481;           20   
     589;   531.6234;           29   
     590;   532.4987;           19   
     591;   533.3739;           19   
     592;   534.2492;           17   
     593;   535.1245;           20   
     594;   535.9998;           22   
     595;   536.8750;           21   
     596;   537.7503;           20   
     597;   538.6256;           23   
     598;   539.5009;           19   
     599;   540.3761;           24   
     600;   541.2514;           25   
     601;   542.1267;           15   
     602;   543.0020;           16   
     603;   543.8772;           17   
     604;   544.7525;           19   
     605;   545.6278;           20   
     606;   546.5031;           21   
     607;   547.3783;           26   
     608;   548.2536;           18   
     609;   549.1289;           25   
     610;   550.0042;           17   
     611;   550.8794;           16   
     612;   551.7547;           26   
     613;   552.6300;           19   
     614;   553.5053;           11   
     615;   554.3805;           23   
     616;   555.2558;           21   
     617;   556.1311;           17   
     618;   557.0064;           18   
     619;   557.8816;           22   
     620;   558.7569;           22   
     621;   559.6322;           16   
     622;   560.5075;           29   
     623;   561.3827;           24   
     624;   562.2580;           19   
     625;   563.1333;           17   
     626;   564.0086;           23   
     627;   564.8838;           30   
     628;   565.7591;           23   
     629;   566.6344;           24   
     630;   567.5097;           22   
     631;   568.3849;           21   
     632;   569.2602;           24   
     633;   570.1355;           31   
     634;   571.0108;           23   
     635;   571.8860;           20   
     636;   572.7613;            9   
     637;   573.6366;           22   
     638;   574.5119;           16   
     639;   575.3871;           20   
     640;   576.2624;           18   
     641;   577.1377;           22   
     642;   578.0130;           23   
     643;   578.8882;           16   
     644;   579.7635;           21   
     645;   580.6388;           15   
     646;   581.5141;           23   
     647;   582.3893;           24   
     648;   583.2646;           12   
     649;   584.1399;           16   
     650;   585.0152;           24   
     651;   585.8904;           19   
     652;   586.7657;           17   
     653;   587.6410;           25   
     654;   588.5163;           17   
     655;   589.3915;           21   
     656;   590.2668;           19   
     657;   591.1421;           15   
     658;   592.0174;           14   
     659;   592.8926;           13   
     660;   593.7679;           17   
     661;   594.6432;           18   
     662;   595.5185;           16   
     663;   596.3937;           19   
     664;   597.2690;           21   
     665;   598.1443;           19   
     666;   599.0196;           28   
     667;   599.8948;           23   
     668;   600.7701;           14   
     669;   601.6454;           19   
     670;   602.5207;           27   
     671;   603.3959;           17   
     672;   604.2712;           25   
     673;   605.1465;           24   
     674;   606.0218;           15   
     675;   606.8970;           15   
     676;   607.7723;           23   
     677;   608.6476;           19   
     678;   609.5229;           17   
     679;   610.3981;           10   
     680;   611.2734;           21   
     681;   612.1487;           32   
     682;   613.0240;           19   
     683;   613.8992;           17   
     684;   614.7745;           25   
     685;   615.6498;           17   
     686;   616.5251;           19   
     687;   617.4003;           21   
     688;   618.2756;           16   
     689;   619.1509;           20   
     690;   620.0262;           24   
     691;   620.9014;           16   
     692;   621.7767;           14   
     693;   622.6520;           15   
     694;   623.5273;           16   
     695;   624.4025;           16   
     696;   625.2778;           18   
     697;   626.1531;           20   
     698;   627.0284;           15   
     699;   627.9036;           17   
     700;   628.7789;           16   
     701;   629.6542;           19   
     702;   630.5295;           26   
     703;   631.4047;           13   
     704;   632.2800;           17   
     705;   633.1553;           20   
     706;   634.0306;           23   
     707;   634.9058;           14   
     708;   635.7811;           13   
     709;   636.6564;           26   
     710;   637.5317;           20   
     711;   638.4069;           18   
     712;   639.2822;           14   
     713;   640.1575;           19   
     714;   641.0328;           14   
     715;   641.9080;           14   
     716;   642.7833;           20   
     717;   643.6586;           19   
     718;   644.5339;           25   
     719;   645.4091;           25   
     720;   646.2844;           17   
     721;   647.1597;           17   
     722;   648.0350;           20   
     723;   648.9102;           15   
     724;   649.7855;           13   
     725;   650.6608;           24   
     726;   651.5361;           17   
     727;   652.4113;           18   
     728;   653.2866;           21   
     729;   654.1619;           17   
     730;   655.0372;           19   
     731;   655.9124;           26   
     732;   656.7877;           14   
     733;   657.6630;           12   
     734;   658.5383;           12   
     735;   659.4135;           19   
     736;   660.2888;           14   
     737;   661.1641;           13   
     738;   662.0394;           18   
     739;   662.9146;           12   
     740;   663.7899;           19   
     741;   664.6652;           11   
     742;   665.5405;           17   
     743;   666.4157;           14   
     744;   667.2910;           16   
     745;   668.1663;           10   
     746;   669.0416;           15   
     747;   669.9168;           16   
     748;   670.7921;           10   
     749;   671.6674;           11   
     750;   672.5427;           15   
     751;   673.4179;           19   
     752;   674.2932;           15   
     753;   675.1685;           17   
     754;   676.0438;           10   
     755;   676.9190;           17   
     756;   677.7943;           16   
     757;   678.6696;           24   
     758;   679.5449;           27   
     759;   680.4201;           11   
     760;   681.2954;           14   
     761;   682.1707;           23   
     762;   683.0460;           15   
     763;   683.9212;           14   
     764;   684.7965;           15   
     765;   685.6718;           18   
     766;   686.5471;            9   
     767;   687.4223;            8   
     768;   688.2976;           14   
     769;   689.1729;           20   
     770;   690.0482;           15   
     771;   690.9234;           19   
     772;   691.7987;           21   
     773;   692.6740;           15   
     774;   693.5493;           16   
     775;   694.4245;            8   
     776;   695.2998;           13   
     777;   696.1751;           14   
     778;   697.0504;           13   
     779;   697.9256;            5   
     780;   698.8009;           18   
     781;   699.6762;           13   
     782;   700.5515;           17   
     783;   701.4267;           17   
     784;   702.3020;           10   
     785;   703.1773;           16   
     786;   704.0526;           12   
     787;   704.9278;            7   
     788;   705.8031;           13   
     789;   706.6784;           13   
     790;   707.5537;           14   
     791;   708.4289;           16   
     792;   709.3042;           16   
     793;   710.1795;           10   
     794;   711.0548;            7   
     795;   711.9300;           13   
     796;   712.8053;           14   
     797;   713.6806;           21   
     798;   714.5559;           14   
     799;   715.4311;            7   
     800;   716.3064;            7   
     801;   717.1817;           12   
     802;   718.0570;           15   
     803;   718.9322;           13   
     804;   719.8075;           13   
     805;   720.6828;            7   
     806;   721.5581;           13   
     807;   722.4333;           14   
     808;   723.3086;           12   
     809;   724.1839;           20   
     810;   725.0592;           10   
     811;   725.9344;           11   
     812;   726.8097;            6   
     813;   727.6850;           10   
     814;   728.5603;           12   
     815;   729.4355;           10   
     816;   730.3108;           10   
     817;   731.1861;           13   
     818;   732.0614;            8   
     819;   732.9366;           10   
     820;   733.8119;            5   
     821;   734.6872;           13   
     822;   735.5625;            8   
     823;   736.4377;           14   
     824;   737.3130;            5   
     825;   738.1883;           15   
     826;   739.0636;           13   
     827;   739.9388;            6   
     828;   740.8141;           18   
     829;   741.6894;            6   
     830;   742.5647;            9   
     831;   743.4399;           12   
     832;   744.3152;           13   
     833;   745.1905;           13   
     834;   746.0658;            9   
     835;   746.9410;           10   
     836;   747.8163;            8   
     837;   748.6916;           10   
     838;   749.5669;           12   
     839;   750.4421;            8   
     840;   751.3174;            7   
     841;   752.1927;            8   
     842;   753.0680;           11   
     843;   753.9432;            5   
     844;   754.8185;            5   
     845;   755.6938;           10   
     846;   756.5691;           10   
     847;   757.4443;           10   
     848;   758.3196;            7   
     849;   759.1949;            7   
     850;   760.0702;           16   
     851;   760.9454;            9   
     852;   761.8207;            3   
     853;   762.6960;            5   
     854;   763.5713;           11   
     855;   764.4465;            9   
     856;   765.3218;            8   
     857;   766.1971;            5   
     858;   767.0724;            7   
     859;   767.9476;            5   
     860;   768.8229;            6   
     861;   769.6982;           11   
     862;   770.5735;           10   
     863;   771.4487;            7   
     864;   772.3240;            8   
     865;   773.1993;            4   
     866;   774.0746;            5   
     867;   774.9498;            5   
     868;   775.8251;            6   
     869;   776.7004;           14   
     870;   777.5757;            6   
     871;   778.4509;            2   
     872;   779.3262;           10   
     873;   780.2015;            7   
     874;   781.0768;            3   
     875;   781.9520;            9   
     876;   782.8273;           10   
     877;   783.7026;            6   
     878;   784.5779;           12   
     879;   785.4531;            9   
     880;   786.3284;           13   
     881;   787.2037;            7   
     882;   788.0790;            8   
     883;   788.9542;            9   
     884;   789.8295;            4   
     885;   790.7048;            6   
     886;   791.5801;           12   
     887;   792.4553;            5   
     888;   793.3306;            6   
     889;   794.2059;            9   
     890;   795.0812;           12   
     891;   795.9564;           10   
     892;   796.8317;            6   
     893;   797.7070;            7   
     894;   798.5823;            4   
     895;   799.4575;            6   
     896;   800.3328;            8   
     897;   801.2081;            8   
     898;   802.0834;            8   
     899;   802.9586;            8   
     900;   803.8339;            5   
     901;   804.7092;            7   
     902;   805.5845;            8   
     903;   806.4597;            9   
     904;   807.3350;            6   
     905;   808.2103;            9   
     906;   809.0856;            7   
     907;   809.9608;            5   
     908;   810.8361;           10   
     909;   811.7114;            8   
     910;   812.5867;            6   
     911;   813.4619;            6   
     912;   814.3372;            4   
     913;   815.2125;            6   
     914;   816.0878;           13   
     915;   816.9631;            2   
     916;   817.8383;            5   
     917;   818.7136;            8   
     918;   819.5889;            4   
     919;   820.4642;            8   
     920;   821.3394;            9   
     921;   822.2147;            9   
     922;   823.0900;            1   
     923;   823.9653;            9   
     924;   824.8405;            6   
     925;   825.7158;            5   
     926;   826.5911;            3   
     927;   827.4664;            8   
     928;   828.3416;            7   
     929;   829.2169;            8   
     930;   830.0922;            3   
     931;   830.9675;            6   
     932;   831.8427;            4   
     933;   832.7180;            7   
     934;   833.5933;            3   
     935;   834.4686;           10   
     936;   835.3438;            5   
     937;   836.2191;            4   
     938;   837.0944;            1   
     939;   837.9697;            3   
     940;   838.8449;            3   
     941;   839.7202;            5   
     942;   840.5955;            3   
     943;   841.4708;            6   
     944;   842.3460;            5   
     945;   843.2213;            3   
     946;   844.0966;            1   
     947;   844.9719;            6   
     948;   845.8471;            5   
     949;   846.7224;            5   
     950;   847.5977;            2   
     951;   848.4730;            3   
     952;   849.3482;            3   
     953;   850.2235;            6   
     954;   851.0988;            4   
     955;   851.9741;            5   
     956;   852.8493;            4   
     957;   853.7246;            6   
     958;   854.5999;            4   
     959;   855.4752;            1   
     960;   856.3504;            1   
     961;   857.2257;            5   
     962;   858.1010;            3   
     963;   858.9763;            8   
     964;   859.8515;            2   
     965;   860.7268;            7   
     966;   861.6021;            5   
     967;   862.4774;            2   
     968;   863.3526;            4   
     969;   864.2279;            1   
     970;   865.1032;            3   
     971;   865.9785;            2   
     972;   866.8537;            6   
     973;   867.7290;            3   
     974;   868.6043;            2   
     975;   869.4796;            6   
     976;   870.3548;            4   
     977;   871.2301;            3   
     978;   872.1054;            4   
     979;   872.9807;            1   
     980;   873.8559;            2   
     981;   874.7312;            4   
     982;   875.6065;            5   
     983;   876.4818;            4   
     984;   877.3570;            6   
     985;   878.2323;            5   
     986;   879.1076;            4   
     987;   879.9829;            6   
     988;   880.8581;            5   
     989;   881.7334;            2   
     990;   882.6087;            6   
     991;   883.4840;            1   
     992;   884.3592;            3   
     993;   885.2345;            3   
     994;   886.1098;            5   
     995;   886.9851;            2   
     996;   887.8603;            6   
     997;   888.7356;            6   
     998;   889.6109;            0   
     999;   890.4862;            1   
    1000;   891.3614;            5   
    1001;   892.2367;            3   
    1002;   893.1120;            0   
    1003;   893.9873;            1   
    1004;   894.8625;            0   
    1005;   895.7378;            7   
    1006;   896.6131;            4   
    1007;   897.4884;            3   
    1008;   898.3636;            2   
    1009;   899.2389;            2   
    1010;   900.1142;            1   
    1011;   900.9895;            4   
    1012;   901.8647;            2   
    1013;   902.7400;            3   
    1014;   903.6153;            2   
    1015;   904.4906;            8   
    1016;   905.3658;            1   
    1017;   906.2411;            5   
    1018;   907.1164;            5   
    1019;   907.9917;            1   
    1020;   908.8669;            2   
    1021;   909.7422;            2   
    1022;   910.6175;            2   
    1023;   911.4928;            3   
    1024;   912.3680;            2   
    1025;   913.2433;            2   
    1026;   914.1186;            5   
    1027;   914.9939;            0   
    1028;   915.8691;            5   
    1029;   916.7444;            4   
    1030;   917.6197;            3   
    1031;   918.4950;            3   
    1032;   919.3702;            1   
    1033;   920.2455;            4   
    1034;   921.1208;            1   
    1035;   921.9961;            2   
    1036;   922.8713;            1   
    1037;   923.7466;            2   
    1038;   924.6219;            4   
    1039;   925.4972;            2   
    1040;   926.3724;            5   
    1041;   927.2477;            1   
    1042;   928.1230;            3   
    1043;   928.9983;            6   
    1044;   929.8735;            6   
    1045;   930.7488;            2   
    1046;   931.6241;            1   
    1047;   932.4994;            5   
    1048;   933.3746;            3   
    1049;   934.2499;            0   
    1050;   935.1252;            3   
    1051;   936.0005;            3   
    1052;   936.8757;            2   
    1053;   937.7510;            3   
    1054;   938.6263;            1   
    1055;   939.5016;            2   
    1056;   940.3768;            2   
    1057;   941.2521;            3   
    1058;   942.1274;            2   
    1059;   943.0027;            2   
    1060;   943.8779;            2   
    1061;   944.7532;            4   
    1062;   945.6285;            5   
    1063;   946.5038;            2   
    1064;   947.3790;            1   
    1065;   948.2543;            2   
    1066;   949.1296;            1   
    1067;   950.0049;            2   
    1068;   950.8801;            5   
    1069;   951.7554;            1   
    1070;   952.6307;            1   
    1071;   953.5060;            3   
    1072;   954.3812;            0   
    1073;   955.2565;            0   
    1074;   956.1318;            4   
    1075;   957.0071;            5   
    1076;   957.8823;            2   
    1077;   958.7576;            0   
    1078;   959.6329;            2   
    1079;   960.5082;            1   
    1080;   961.3834;            1   
    1081;   962.2587;            1   
    1082;   963.1340;            1   
    1083;   964.0093;            3   
    1084;   964.8845;            0   
    1085;   965.7598;            2   
    1086;   966.6351;            1   
    1087;   967.5104;            3   
    1088;   968.3856;            0   
    1089;   969.2609;            2   
    1090;   970.1362;            0   
    1091;   971.0115;            2   
    1092;   971.8867;            2   
    1093;   972.7620;            3   
    1094;   973.6373;            5   
    1095;   974.5126;            0   
    1096;   975.3878;            1   
    1097;   976.2631;            0   
    1098;   977.1384;            3   
    1099;   978.0137;            0   
    1100;   978.8889;            2   
    1101;   979.7642;            3   
    1102;   980.6395;            1   
    1103;   981.5148;            0   
    1104;   982.3900;            2   
    1105;   983.2653;            1   
    1106;   984.1406;            2   
    1107;   985.0159;            1   
    1108;   985.8911;            0   
    1109;   986.7664;            1   
    1110;   987.6417;            1   
    1111;   988.5170;            2   
    1112;   989.3922;            2   
    1113;   990.2675;            3   
    1114;   991.1428;            5   
    1115;   992.0181;            0   
    1116;   992.8933;            3   
    1117;   993.7686;            0   
    1118;   994.6439;            2   
    1119;   995.5192;            2   
    1120;   996.3944;            1   
    1121;   997.2697;            3   
    1122;   998.1450;            2   
    1123;   999.0203;            1   
    1124;   999.8955;            1   
    1125;  1000.7708;            2   
    1126;  1001.6461;            2   
    1127;  1002.5214;            0   
    1128;  1003.3966;            2   
    1129;  1004.2719;            1   
    1130;  1005.1472;            2   
    1131;  1006.0225;            1   
    1132;  1006.8977;            0   
    1133;  1007.7730;            2   
    1134;  1008.6483;            1   
    1135;  1009.5236;            0   
    1136;  1010.3988;            1   
    1137;  1011.2741;            0   
    1138;  1012.1494;            3   
    1139;  1013.0247;            0   
    1140;  1013.8999;            1   
    1141;  1014.7752;            3   
    1142;  1015.6505;            2   
    1143;  1016.5258;            0   
    1144;  1017.4010;            2   
    1145;  1018.2763;            2   
    1146;  1019.1516;            0   
    1147;  1020.0269;            3   
    1148;  1020.9021;            1   
    1149;  1021.7774;            2   
    1150;  1022.6527;            2   
    1151;  1023.5280;            2   
    1152;  1024.4032;            2   
    1153;  1025.2785;            0   
    1154;  1026.1538;            0   
    1155;  1027.0291;            2   
    1156;  1027.9043;            0   
    1157;  1028.7796;            3   
    1158;  1029.6549;            2   
    1159;  1030.5302;            3   
    1160;  1031.4054;            1   
    1161;  1032.2807;            0   
    1162;  1033.1560;            2   
    1163;  1034.0313;            0   
    1164;  1034.9065;            2   
    1165;  1035.7818;            1   
    1166;  1036.6571;            0   
    1167;  1037.5324;            0   
    1168;  1038.4076;            2   
    1169;  1039.2829;            2   
    1170;  1040.1582;            1   
    1171;  1041.0335;            2   
    1172;  1041.9087;            5   
    1173;  1042.7840;            0   
    1174;  1043.6593;            1   
    1175;  1044.5346;            2   
    1176;  1045.4098;            1   
    1177;  1046.2851;            0   
    1178;  1047.1604;            2   
    1179;  1048.0357;            1   
    1180;  1048.9109;            0   
    1181;  1049.7862;            1   
    1182;  1050.6615;            0   
    1183;  1051.5368;            2   
    1184;  1052.4120;            2   
    1185;  1053.2873;            1   
    1186;  1054.1626;            1   
    1187;  1055.0379;            1   
    1188;  1055.9131;            1   
    1189;  1056.7884;            1   
    1190;  1057.6637;            0   
    1191;  1058.5390;            1   
    1192;  1059.4142;            0   
    1193;  1060.2895;            3   
    1194;  1061.1648;            0   
    1195;  1062.0401;            0   
    1196;  1062.9153;            1   
    1197;  1063.7906;            0   
    1198;  1064.6659;            1   
    1199;  1065.5412;            1   
    1200;  1066.4164;            1   
    1201;  1067.2917;            2   
    1202;  1068.1670;            2   
    1203;  1069.0423;            0   
    1204;  1069.9175;            1   
    1205;  1070.7928;            1   
    1206;  1071.6681;            2   
    1207;  1072.5434;            2   
    1208;  1073.4186;            0   
    1209;  1074.2939;            0   
    1210;  1075.1692;            3   
    1211;  1076.0445;            0   
    1212;  1076.9197;            1   
    1213;  1077.7950;            0   
    1214;  1078.6703;            0   
    1215;  1079.5456;            1   
    1216;  1080.4208;            1   
    1217;  1081.2961;            0   
    1218;  1082.1714;            3   
    1219;  1083.0467;            0   
    1220;  1083.9219;            2   
    1221;  1084.7972;            0   
    1222;  1085.6725;            1   
    1223;  1086.5478;            0   
    1224;  1087.4230;            0   
    1225;  1088.2983;            0   
    1226;  1089.1736;            2   
    1227;  1090.0489;            3   
    1228;  1090.9241;            0   
    1229;  1091.7994;            1   
    1230;  1092.6747;            1   
    1231;  1093.5500;            1   
    1232;  1094.4252;            1   
    1233;  1095.3005;            2   
    1234;  1096.1758;            0   
    1235;  1097.0511;            0   
    1236;  1097.9263;            1   
    1237;  1098.8016;            2   
    1238;  1099.6769;            0   
    1239;  1100.5522;            0   
    1240;  1101.4274;            1   
    1241;  1102.3027;            0   
    1242;  1103.1780;            0   
    1243;  1104.0533;            1   
    1244;  1104.9285;            0   
    1245;  1105.8038;            0   
    1246;  1106.6791;            0   
    1247;  1107.5544;            2   
    1248;  1108.4296;            1   
    1249;  1109.3049;            2   
    1250;  1110.1802;            0   
    1251;  1111.0555;            1   
    1252;  1111.9307;            2   
    1253;  1112.8060;            1   
    1254;  1113.6813;            0   
    1255;  1114.5566;            0   
    1256;  1115.4318;            0   
    1257;  1116.3071;            1   
    1258;  1117.1824;            2   
    1259;  1118.0577;            0   
    1260;  1118.9329;            1   
    1261;  1119.8082;            3   
    1262;  1120.6835;            0   
    1263;  1121.5588;            2   
    1264;  1122.4340;            0   
    1265;  1123.3093;            1   
    1266;  1124.1846;            1   
    1267;  1125.0599;            1   
    1268;  1125.9351;            2   
    1269;  1126.8104;            1   
    1270;  1127.6857;            2   
    1271;  1128.5610;            1   
    1272;  1129.4362;            3   
    1273;  1130.3115;            0   
    1274;  1131.1868;            2   
    1275;  1132.0621;            0   
    1276;  1132.9373;            0   
    1277;  1133.8126;            1   
    1278;  1134.6879;            0   
    1279;  1135.5632;            0   
    1280;  1136.4384;            0   
    1281;  1137.3137;            0   
    1282;  1138.1890;            0   
    1283;  1139.0643;            0   
    1284;  1139.9395;            0   
    1285;  1140.8148;            1   
    1286;  1141.6901;            1   
    1287;  1142.5654;            0   
    1288;  1143.4406;            0   
    1289;  1144.3159;            0   
    1290;  1145.1912;            0   
    1291;  1146.0665;            2   
    1292;  1146.9417;            3   
    1293;  1147.8170;            1   
    1294;  1148.6923;            0   
    1295;  1149.5676;            0   
    1296;  1150.4428;            1   
    1297;  1151.3181;            0   
    1298;  1152.1934;            0   
    1299;  1153.0687;            4   
    1300;  1153.9439;            0   
    1301;  1154.8192;            1   
    1302;  1155.6945;            0   
    1303;  1156.5698;            1   
    1304;  1157.4450;            0   
    1305;  1158.3203;            0   
    1306;  1159.1956;            2   
    1307;  1160.0709;            0   
    1308;  1160.9461;            0   
    1309;  1161.8214;            1   
    1310;  1162.6967;            0   
    1311;  1163.5720;            1   
    1312;  1164.4472;            3   
    1313;  1165.3225;            0   
    1314;  1166.1978;            0   
    1315;  1167.0731;            2   
    1316;  1167.9483;            0   
    1317;  1168.8236;            0   
    1318;  1169.6989;            1   
    1319;  1170.5742;            1   
    1320;  1171.4494;            0   
    1321;  1172.3247;            1   
    1322;  1173.2000;            0   
    1323;  1174.0753;            0   
    1324;  1174.9505;            1   
    1325;  1175.8258;            0   
    1326;  1176.7011;            0   
    1327;  1177.5764;            0   
    1328;  1178.4516;            0   
    1329;  1179.3269;            1   
    1330;  1180.2022;            1   
    1331;  1181.0775;            0   
    1332;  1181.9527;            0   
    1333;  1182.8280;            1   
    1334;  1183.7033;            0   
    1335;  1184.5786;            1   
    1336;  1185.4538;            0   
    1337;  1186.3291;            1   
    1338;  1187.2044;            0   
    1339;  1188.0797;            0   
    1340;  1188.9549;            0   
    1341;  1189.8302;            0   
    1342;  1190.7055;            0   
    1343;  1191.5808;            0   
    1344;  1192.4560;            0   
    1345;  1193.3313;            2   
    1346;  1194.2066;            0   
    1347;  1195.0819;            1   
    1348;  1195.9571;            1   
    1349;  1196.8324;            1   
    1350;  1197.7077;            3   
    1351;  1198.5830;            0   
    1352;  1199.4582;            1   
    1353;  1200.3335;            1   
    1354;  1201.2088;            0   
    1355;  1202.0841;            0   
    1356;  1202.9593;            0   
    1357;  1203.8346;            0   
    1358;  1204.7099;            1   
    1359;  1205.5852;            0   
    1360;  1206.4604;            0   
    1361;  1207.3357;            1   
    1362;  1208.2110;            2   
    1363;  1209.0863;            0   
    1364;  1209.9615;            2   
    1365;  1210.8368;            1   
    1366;  1211.7121;            1   
    1367;  1212.5874;            1   
    1368;  1213.4626;            0   
    1369;  1214.3379;            0   
    1370;  1215.2132;            3   
    1371;  1216.0885;            0   
    1372;  1216.9637;            0   
    1373;  1217.8390;            0   
    1374;  1218.7143;            1   
    1375;  1219.5896;            1   
    1376;  1220.4648;            0   
    1377;  1221.3401;            1   
    1378;  1222.2154;            1   
    1379;  1223.0907;            0   
    1380;  1223.9659;            0   
    1381;  1224.8412;            1   
    1382;  1225.7165;            2   
    1383;  1226.5918;            1   
    1384;  1227.4670;            1   
    1385;  1228.3423;            0   
    1386;  1229.2176;            1   
    1387;  1230.0929;            1   
    1388;  1230.9681;            0   
    1389;  1231.8434;            1   
    1390;  1232.7187;            0   
    1391;  1233.5940;            0   
    1392;  1234.4692;            0   
    1393;  1235.3445;            0   
    1394;  1236.2198;            2   
    1395;  1237.0951;            0   
    1396;  1237.9703;            1   
    1397;  1238.8456;            0   
    1398;  1239.7209;            0   
    1399;  1240.5962;            0   
    1400;  1241.4714;            0   
    1401;  1242.3467;            1   
    1402;  1243.2220;            0   
    1403;  1244.0973;            0   
    1404;  1244.9725;            0   
    1405;  1245.8478;            1   
    1406;  1246.7231;            1   
    1407;  1247.5984;            0   
    1408;  1248.4736;            2   
    1409;  1249.3489;            0   
    1410;  1250.2242;            0   
    1411;  1251.0995;            1   
    1412;  1251.9747;            1   
    1413;  1252.8500;            1   
    1414;  1253.7253;            0   
    1415;  1254.6006;            0   
    1416;  1255.4758;            0   
    1417;  1256.3511;            0   
    1418;  1257.2264;            2   
    1419;  1258.1017;            1   
    1420;  1258.9769;            0   
    1421;  1259.8522;            0   
    1422;  1260.7275;            1   
    1423;  1261.6028;            0   
    1424;  1262.4780;            0   
    1425;  1263.3533;            0   
    1426;  1264.2286;            1   
    1427;  1265.1039;            0   
    1428;  1265.9791;            0   
    1429;  1266.8544;            0   
    1430;  1267.7297;            1   
    1431;  1268.6050;            0   
    1432;  1269.4802;            0   
    1433;  1270.3555;            2   
    1434;  1271.2308;            0   
    1435;  1272.1061;            0   
    1436;  1272.9813;            1   
    1437;  1273.8566;            1   
    1438;  1274.7319;            0   
    1439;  1275.6072;            0   
    1440;  1276.4824;            1   
    1441;  1277.3577;            0   
    1442;  1278.2330;            0   
    1443;  1279.1083;            2   
    1444;  1279.9835;            0   
    1445;  1280.8588;            0   
    1446;  1281.7341;            0   
    1447;  1282.6094;            0   
    1448;  1283.4846;            0   
    1449;  1284.3599;            0   
    1450;  1285.2352;            2   
    1451;  1286.1105;            0   
    1452;  1286.9857;            0   
    1453;  1287.8610;            0   
    1454;  1288.7363;            0   
    1455;  1289.6116;            0   
    1456;  1290.4868;            0   
    1457;  1291.3621;            0   
    1458;  1292.2374;            1   
    1459;  1293.1127;            1   
    1460;  1293.9879;            0   
    1461;  1294.8632;            0   
    1462;  1295.7385;            0   
    1463;  1296.6138;            1   
    1464;  1297.4890;            0   
    1465;  1298.3643;            0   
    1466;  1299.2396;            0   
    1467;  1300.1149;            0   
    1468;  1300.9901;            0   
    1469;  1301.8654;            0   
    1470;  1302.7407;            1   
    1471;  1303.6160;            0   
    1472;  1304.4912;            0   
    1473;  1305.3665;            0   
    1474;  1306.2418;            1   
    1475;  1307.1171;            0   
    1476;  1307.9923;            0   
    1477;  1308.8676;            1   
    1478;  1309.7429;            1   
    1479;  1310.6182;            0   
    1480;  1311.4934;            0   
    1481;  1312.3687;            0   
    1482;  1313.2440;            0   
    1483;  1314.1193;            1   
    1484;  1314.9945;            0   
    1485;  1315.8698;            0   
    1486;  1316.7451;            0   
    1487;  1317.6204;            0   
    1488;  1318.4956;            0   
    1489;  1319.3709;            0   
    1490;  1320.2462;            0   
    1491;  1321.1215;            0   
    1492;  1321.9967;            0   
    1493;  1322.8720;            0   
    1494;  1323.7473;            0   
    1495;  1324.6226;            0   
    1496;  1325.4978;            0   
    1497;  1326.3731;            1   
    1498;  1327.2484;            1   
    1499;  1328.1237;            1   
    1500;  1328.9989;            0   
    1501;  1329.8742;            1   
    1502;  1330.7495;            1   
    1503;  1331.6248;            0   
    1504;  1332.5000;            1   
    1505;  1333.3753;            1   
    1506;  1334.2506;            1   
    1507;  1335.1259;            0   
    1508;  1336.0011;            0   
    1509;  1336.8764;            1   
    1510;  1337.7517;            0   
    1511;  1338.6270;            0   
    1512;  1339.5022;            0   
    1513;  1340.3775;            0   
    1514;  1341.2528;            0   
    1515;  1342.1281;            1   
    1516;  1343.0033;            1   
    1517;  1343.8786;            0   
    1518;  1344.7539;            0   
    1519;  1345.6292;            0   
    1520;  1346.5044;            0   
    1521;  1347.3797;            1   
    1522;  1348.2550;            0   
    1523;  1349.1303;            1   
    1524;  1350.0055;            0   
    1525;  1350.8808;            0   
    1526;  1351.7561;            0   
    1527;  1352.6314;            0   
    1528;  1353.5066;            0   
    1529;  1354.3819;            0   
    1530;  1355.2572;            0   
    1531;  1356.1325;            0   
    1532;  1357.0077;            2   
    1533;  1357.8830;            0   
    1534;  1358.7583;            1   
    1535;  1359.6336;            1   
    1536;  1360.5088;            0   
    1537;  1361.3841;            0   
    1538;  1362.2594;            1   
    1539;  1363.1347;            0   
    1540;  1364.0099;            0   
    1541;  1364.8852;            1   
    1542;  1365.7605;            1   
    1543;  1366.6358;            0   
    1544;  1367.5110;            0   
    1545;  1368.3863;            0   
    1546;  1369.2616;            1   
    1547;  1370.1369;            0   
    1548;  1371.0121;            0   
    1549;  1371.8874;            0   
    1550;  1372.7627;            2   
    1551;  1373.6380;            1   
    1552;  1374.5132;            1   
    1553;  1375.3885;            0   
    1554;  1376.2638;            0   
    1555;  1377.1391;            1   
    1556;  1378.0143;            1   
    1557;  1378.8896;            0   
    1558;  1379.7649;            0   
    1559;  1380.6402;            0   
    1560;  1381.5154;            0   
    1561;  1382.3907;            0   
    1562;  1383.2660;            1   
    1563;  1384.1413;            0   
    1564;  1385.0165;            0   
    1565;  1385.8918;            0   
    1566;  1386.7671;            0   
    1567;  1387.6424;            0   
    1568;  1388.5176;            0   
    1569;  1389.3929;            0   
    1570;  1390.2682;            0   
    1571;  1391.1435;            1   
    1572;  1392.0187;            1   
    1573;  1392.8940;            0   
    1574;  1393.7693;            0   
    1575;  1394.6446;            1   
    1576;  1395.5198;            0   
    1577;  1396.3951;            0   
    1578;  1397.2704;            0   
    1579;  1398.1457;            1   
    1580;  1399.0209;            0   
    1581;  1399.8962;            0   
    1582;  1400.7715;            0   
    1583;  1401.6468;            0   
    1584;  1402.5220;            0   
    1585;  1403.3973;            1   
    1586;  1404.2726;            2   
    1587;  1405.1479;            1   
    1588;  1406.0231;            0   
    1589;  1406.8984;            1   
    1590;  1407.7737;            0   
    1591;  1408.6490;            0   
    1592;  1409.5242;            0   
    1593;  1410.3995;            0   
    1594;  1411.2748;            0   
    1595;  1412.1501;            1   
    1596;  1413.0253;            0   
    1597;  1413.9006;            0   
    1598;  1414.7759;            0   
    1599;  1415.6512;            0   
    1600;  1416.5264;            0   
    1601;  1417.4017;            0   
    1602;  1418.2770;            0   
    1603;  1419.1523;            0   
    1604;  1420.0275;            0   
    1605;  1420.9028;            0   
    1606;  1421.7781;            0   
    1607;  1422.6534;            1   
    1608;  1423.5286;            0   
    1609;  1424.4039;            0   
    1610;  1425.2792;            0   
    1611;  1426.1545;            0   
    1612;  1427.0297;            0   
    1613;  1427.9050;            1   
    1614;  1428.7803;            0   
    1615;  1429.6556;            0   
    1616;  1430.5308;            2   
    1617;  1431.4061;            0   
    1618;  1432.2814;            0   
    1619;  1433.1567;            0   
    1620;  1434.0319;            0   
    1621;  1434.9072;            0   
    1622;  1435.7825;            0   
    1623;  1436.6578;            0   
    1624;  1437.5330;            0   
    1625;  1438.4083;            0   
    1626;  1439.2836;            0   
    1627;  1440.1589;            0   
    1628;  1441.0341;            1   
    1629;  1441.9094;            0   
    1630;  1442.7847;            0   
    1631;  1443.6600;            0   
    1632;  1444.5352;            0   
    1633;  1445.4105;            1   
    1634;  1446.2858;            0   
    1635;  1447.1611;            0   
    1636;  1448.0363;            0   
    1637;  1448.9116;            0   
    1638;  1449.7869;            0   
    1639;  1450.6622;            0   
    1640;  1451.5374;            0   
    1641;  1452.4127;            0   
    1642;  1453.2880;            0   
    1643;  1454.1633;            0   
    1644;  1455.0385;            0   
    1645;  1455.9138;            1   
    1646;  1456.7891;            0   
    1647;  1457.6644;            0   
    1648;  1458.5396;            0   
    1649;  1459.4149;            1   
    1650;  1460.2902;            1   
    1651;  1461.1655;            0   
    1652;  1462.0407;            0   
    1653;  1462.9160;            1   
    1654;  1463.7913;            0   
    1655;  1464.6666;            0   
    1656;  1465.5418;            1   
    1657;  1466.4171;            1   
    1658;  1467.2924;            0   
    1659;  1468.1677;            0   
    1660;  1469.0429;            0   
    1661;  1469.9182;            0   
    1662;  1470.7935;            0   
    1663;  1471.6688;            0   
    1664;  1472.5440;            0   
    1665;  1473.4193;            0   
    1666;  1474.2946;            0   
    1667;  1475.1699;            0   
    1668;  1476.0451;            0   
    1669;  1476.9204;            0   
    1670;  1477.7957;            0   
    1671;  1478.6710;            0   
    1672;  1479.5462;            0   
    1673;  1480.4215;            0   
    1674;  1481.2968;            0   
    1675;  1482.1721;            0   
    1676;  1483.0473;            0   
    1677;  1483.9226;            0   
    1678;  1484.7979;            1   
    1679;  1485.6732;            0   
    1680;  1486.5484;            0   
    1681;  1487.4237;            0   
    1682;  1488.2990;            0   
    1683;  1489.1743;            1   
    1684;  1490.0495;            0   
    1685;  1490.9248;            0   
    1686;  1491.8001;            1   
    1687;  1492.6754;            0   
    1688;  1493.5506;            0   
    1689;  1494.4259;            0   
    1690;  1495.3012;            1   
    1691;  1496.1765;            0   
    1692;  1497.0517;            0   
    1693;  1497.9270;            0   
    1694;  1498.8023;            0   
    1695;  1499.6776;            1   
    1696;  1500.5528;            0   
    1697;  1501.4281;            0   
    1698;  1502.3034;            0   
    1699;  1503.1787;            1   
    1700;  1504.0539;            0   
    1701;  1504.9292;            0   
    1702;  1505.8045;            1   
    1703;  1506.6798;            0   
    1704;  1507.5550;            0   
    1705;  1508.4303;            1   
    1706;  1509.3056;            0   
    1707;  1510.1809;            0   
    1708;  1511.0561;            0   
    1709;  1511.9314;            0   
    1710;  1512.8067;            0   
    1711;  1513.6820;            0   
    1712;  1514.5572;            0   
    1713;  1515.4325;            0   
    1714;  1516.3078;            0   
    1715;  1517.1831;            0   
    1716;  1518.0583;            0   
    1717;  1518.9336;            0   
    1718;  1519.8089;            0   
    1719;  1520.6842;            0   
    1720;  1521.5594;            0   
    1721;  1522.4347;            0   
    1722;  1523.3100;            0   
    1723;  1524.1853;            0   
    1724;  1525.0605;            0   
    1725;  1525.9358;            0   
    1726;  1526.8111;            0   
    1727;  1527.6864;            0   
    1728;  1528.5616;            0   
    1729;  1529.4369;            0   
    1730;  1530.3122;            0   
    1731;  1531.1875;            0   
    1732;  1532.0627;            0   
    1733;  1532.9380;            0   
    1734;  1533.8133;            0   
    1735;  1534.6886;            0   
    1736;  1535.5638;            0   
    1737;  1536.4391;            0   
    1738;  1537.3144;            0   
    1739;  1538.1897;            1   
    1740;  1539.0649;            0   
    1741;  1539.9402;            0   
    1742;  1540.8155;            0   
    1743;  1541.6908;            0   
    1744;  1542.5660;            0   
    1745;  1543.4413;            0   
    1746;  1544.3166;            1   
    1747;  1545.1919;            0   
    1748;  1546.0671;            0   
    1749;  1546.9424;            0   
    1750;  1547.8177;            1   
    1751;  1548.6930;            0   
    1752;  1549.5682;            0   
    1753;  1550.4435;            0   
    1754;  1551.3188;            0   
    1755;  1552.1941;            0   
    1756;  1553.0693;            0   
    1757;  1553.9446;            0   
    1758;  1554.8199;            0   
    1759;  1555.6952;            0   
    1760;  1556.5704;            0   
    1761;  1557.4457;            0   
    1762;  1558.3210;            0   
    1763;  1559.1963;            0   
    1764;  1560.0715;            1   
    1765;  1560.9468;            0   
    1766;  1561.8221;            0   
    1767;  1562.6974;            0   
    1768;  1563.5726;            0   
    1769;  1564.4479;            0   
    1770;  1565.3232;            0   
    1771;  1566.1985;            0   
    1772;  1567.0737;            0   
    1773;  1567.9490;            0   
    1774;  1568.8243;            0   
    1775;  1569.6996;            1   
    1776;  1570.5748;            0   
    1777;  1571.4501;            0   
    1778;  1572.3254;            1   
    1779;  1573.2007;            0   
    1780;  1574.0759;            0   
    1781;  1574.9512;            1   
    1782;  1575.8265;            0   
    1783;  1576.7018;            0   
    1784;  1577.5770;            0   
    1785;  1578.4523;            0   
    1786;  1579.3276;            0   
    1787;  1580.2029;            1   
    1788;  1581.0781;            0   
    1789;  1581.9534;            0   
    1790;  1582.8287;            1   
    1791;  1583.7040;            0   
    1792;  1584.5792;            0   
    1793;  1585.4545;            0   
    1794;  1586.3298;            2   
    1795;  1587.2051;            0   
    1796;  1588.0803;            0   
    1797;  1588.9556;            0   
    1798;  1589.8309;            1   
    1799;  1590.7062;            0   
    1800;  1591.5814;            0   
    1801;  1592.4567;            1   
    1802;  1593.3320;            0   
    1803;  1594.2073;            0   
    1804;  1595.0825;            1   
    1805;  1595.9578;            0   
    1806;  1596.8331;            0   
    1807;  1597.7084;            1   
    1808;  1598.5836;            1   
    1809;  1599.4589;            0   
    1810;  1600.3342;            0   
    1811;  1601.2095;            0   
    1812;  1602.0847;            0   
    1813;  1602.9600;            0   
    1814;  1603.8353;            1   
    1815;  1604.7106;            0   
    1816;  1605.5858;            0   
    1817;  1606.4611;            0   
    1818;  1607.3364;            0   
    1819;  1608.2117;            0   
    1820;  1609.0869;            0   
    1821;  1609.9622;            0   
    1822;  1610.8375;            0   
    1823;  1611.7128;            0   
    1824;  1612.5880;            0   
    1825;  1613.4633;            0   
    1826;  1614.3386;            0   
    1827;  1615.2139;            0   
    1828;  1616.0891;            0   
    1829;  1616.9644;            0   
    1830;  1617.8397;            0   
    1831;  1618.7150;            0   
    1832;  1619.5902;            0   
    1833;  1620.4655;            0   
    1834;  1621.3408;            0   
    1835;  1622.2161;            0   
    1836;  1623.0913;            0   
    1837;  1623.9666;            1   
    1838;  1624.8419;            0   
    1839;  1625.7172;            0   
    1840;  1626.5924;            0   
    1841;  1627.4677;            1   
    1842;  1628.3430;            0   
    1843;  1629.2183;            0   
    1844;  1630.0935;            1   
    1845;  1630.9688;            0   
    1846;  1631.8441;            0   
    1847;  1632.7194;            1   
    1848;  1633.5946;            1   
    1849;  1634.4699;            0   
    1850;  1635.3452;            0   
    1851;  1636.2205;            0   
    1852;  1637.0957;            0   
    1853;  1637.9710;            0   
    1854;  1638.8463;            0   
    1855;  1639.7216;            0   
    1856;  1640.5968;            1   
    1857;  1641.4721;            0   
    1858;  1642.3474;            0   
    1859;  1643.2227;            0   
    1860;  1644.0979;            0   
    1861;  1644.9732;            0   
    1862;  1645.8485;            0   
    1863;  1646.7238;            0   
    1864;  1647.5990;            0   
    1865;  1648.4743;            0   
    1866;  1649.3496;            0   
    1867;  1650.2249;            0   
    1868;  1651.1001;            0   
    1869;  1651.9754;            1   
    1870;  1652.8507;            0   
    1871;  1653.7260;            0   
    1872;  1654.6012;            0   
    1873;  1655.4765;            0   
    1874;  1656.3518;            0   
    1875;  1657.2271;            0   
    1876;  1658.1023;            0   
    1877;  1658.9776;            1   
    1878;  1659.8529;            0   
    1879;  1660.7282;            1   
    1880;  1661.6034;            0   
    1881;  1662.4787;            1   
    1882;  1663.3540;            0   
    1883;  1664.2293;            0   
    1884;  1665.1045;            0   
    1885;  1665.9798;            0   
    1886;  1666.8551;            1   
    1887;  1667.7304;            0   
    1888;  1668.6056;            0   
    1889;  1669.4809;            0   
    1890;  1670.3562;            1   
    1891;  1671.2315;            1   
    1892;  1672.1067;            0   
    1893;  1672.9820;            0   
    1894;  1673.8573;            0   
    1895;  1674.7326;            0   
    1896;  1675.6078;            0   
    1897;  1676.4831;            0   
    1898;  1677.3584;            0   
    1899;  1678.2337;            0   
    1900;  1679.1089;            0   
    1901;  1679.9842;            0   
    1902;  1680.8595;            0   
    1903;  1681.7348;            0   
    1904;  1682.6100;            0   
    1905;  1683.4853;            0   
    1906;  1684.3606;            0   
    1907;  1685.2359;            0   
    1908;  1686.1111;            0   
    1909;  1686.9864;            0   
    1910;  1687.8617;            1   
    1911;  1688.7370;            0   
    1912;  1689.6122;            0   
    1913;  1690.4875;            0   
    1914;  1691.3628;            0   
    1915;  1692.2381;            0   
    1916;  1693.1133;            0   
    1917;  1693.9886;            0   
    1918;  1694.8639;            0   
    1919;  1695.7392;            0   
    1920;  1696.6144;            0   
    1921;  1697.4897;            0   
    1922;  1698.3650;            1   
    1923;  1699.2403;            0   
    1924;  1700.1155;            1   
    1925;  1700.9908;            0   
    1926;  1701.8661;            0   
    1927;  1702.7414;            0   
    1928;  1703.6166;            0   
    1929;  1704.4919;            1   
    1930;  1705.3672;            1   
    1931;  1706.2425;            0   
    1932;  1707.1177;            0   
    1933;  1707.9930;            1   
    1934;  1708.8683;            0   
    1935;  1709.7436;            0   
    1936;  1710.6188;            0   
    1937;  1711.4941;            0   
    1938;  1712.3694;            0   
    1939;  1713.2447;            0   
    1940;  1714.1199;            0   
    1941;  1714.9952;            1   
    1942;  1715.8705;            0   
    1943;  1716.7458;            0   
    1944;  1717.6210;            0   
    1945;  1718.4963;            0   
    1946;  1719.3716;            0   
    1947;  1720.2469;            0   
    1948;  1721.1221;            0   
    1949;  1721.9974;            0   
    1950;  1722.8727;            0   
    1951;  1723.7480;            0   
    1952;  1724.6232;            0   
    1953;  1725.4985;            0   
    1954;  1726.3738;            0   
    1955;  1727.2491;            0   
    1956;  1728.1243;            0   
    1957;  1728.9996;            0   
    1958;  1729.8749;            0   
    1959;  1730.7502;            0   
    1960;  1731.6254;            0   
    1961;  1732.5007;            0   
    1962;  1733.3760;            0   
    1963;  1734.2513;            0   
    1964;  1735.1265;            0   
    1965;  1736.0018;            0   
    1966;  1736.8771;            0   
    1967;  1737.7524;            0   
    1968;  1738.6276;            0   
    1969;  1739.5029;            0   
    1970;  1740.3782;            0   
    1971;  1741.2535;            0   
    1972;  1742.1287;            0   
    1973;  1743.0040;            0   
    1974;  1743.8793;            0   
    1975;  1744.7546;            0   
    1976;  1745.6298;            0   
    1977;  1746.5051;            0   
    1978;  1747.3804;            0   
    1979;  1748.2557;            0   
    1980;  1749.1309;            0   
    1981;  1750.0062;            0   
    1982;  1750.8815;            0   
    1983;  1751.7568;            0   
    1984;  1752.6320;            0   
    1985;  1753.5073;            0   
    1986;  1754.3826;            0   
    1987;  1755.2579;            0   
    1988;  1756.1331;            0   
    1989;  1757.0084;            0   
    1990;  1757.8837;            0   
    1991;  1758.7590;            0   
    1992;  1759.6342;            0   
    1993;  1760.5095;            0   
    1994;  1761.3848;            0   
    1995;  1762.2601;            0   
    1996;  1763.1353;            0   
    1997;  1764.0106;            0   
    1998;  1764.8859;            0   
    1999;  1765.7612;            0   
    2000;  1766.6364;            0   
    2001;  1767.5117;            0   
    2002;  1768.3870;            0   
    2003;  1769.2623;            0   
    2004;  1770.1375;            0   
    2005;  1771.0128;            0   
    2006;  1771.8881;            0   
    2007;  1772.7634;            0   
    2008;  1773.6386;            0   
    2009;  1774.5139;            0   
    2010;  1775.3892;            0   
    2011;  1776.2645;            0   
    2012;  1777.1397;            0   
    2013;  1778.0150;            0   
    2014;  1778.8903;            0   
    2015;  1779.7656;            0   
    2016;  1780.6408;            0   
    2017;  1781.5161;            0   
    2018;  1782.3914;            0   
    2019;  1783.2667;            0   
    2020;  1784.1419;            0   
    2021;  1785.0172;            0   
    2022;  1785.8925;            0   
    2023;  1786.7678;            0   
    2024;  1787.6430;            0   
    2025;  1788.5183;            0   
    2026;  1789.3936;            0   
    2027;  1790.2689;            0   
    2028;  1791.1441;            0   
    2029;  1792.0194;            0   
    2030;  1792.8947;            0   
    2031;  1793.7700;            0   
    2032;  1794.6452;            0   
    2033;  1795.5205;            0   
    2034;  1796.3958;            0   
    2035;  1797.2711;            0   
    2036;  1798.1463;            0   
    2037;  1799.0216;            0   
    2038;  1799.8969;            0   
    2039;  1800.7722;            0   
    2040;  1801.6474;            0   
    2041;  1802.5227;            0   
    2042;  1803.3980;            0   
    2043;  1804.2733;            0   
    2044;  1805.1485;            0   
    2045;  1806.0238;            0   
    2046;  1806.8991;            0   
    2047;  1807.7744;            0   
    2048;  1808.6496;            0   
ROI Nummer; Anfangskanal; Endkanal; Anfangsenergie keV ; Endenergie keV; Nettoimpulse; Bruttoimpulse; Untergrundimpulse
In den Daten wurden keine Linien gefunden
ROI Nummer; prozentualer Fehler der Lage; Lage keV; FWHM keV; FWTM keV; FWTM/FWHM Verhltnis; H/L Verhltnis
No Peak records found in data.
Name; Energie keV; Flags; Aktivitt uCi/Unit; Aktivittsfehler %; NWG uCi/Unit; MDA Error %
Es wurden keine Nuklidergebnisse gefunden.
Name; Erwartete Endergie keV; Gemessene Energie keV; Differenz von erwarteter keV; FWHM; Flags; Aktivitt uCi/Unit; Aktivittsfehler %
Es wurden keine Nuklidergebnisse gefunden.
