Kanal;   Energie(keV); Impulse
       1;    16.9617;            0   
       2;    17.8370;            0   
       3;    18.7122;            0   
       4;    19.5875;            0   
       5;    20.4628;            0   
       6;    21.3381;            0   
       7;    22.2133;            0   
       8;    23.0886;            0   
       9;    23.9639;            0   
      10;    24.8392;            0   
      11;    25.7144;            0   
      12;    26.5897;            0   
      13;    27.4650;            0   
      14;    28.3403;            0   
      15;    29.2155;            0   
      16;    30.0908;            0   
      17;    30.9661;            0   
      18;    31.8414;            0   
      19;    32.7166;            0   
      20;    33.5919;            0   
      21;    34.4672;            0   
      22;    35.3425;            0   
      23;    36.2177;            0   
      24;    37.0930;            0   
      25;    37.9683;            0   
      26;    38.8436;            0   
      27;    39.7188;            0   
      28;    40.5941;            0   
      29;    41.4694;            0   
      30;    42.3447;            0   
      31;    43.2199;            0   
      32;    44.0952;            0   
      33;    44.9705;            0   
      34;    45.8458;            0   
      35;    46.7210;            0   
      36;    47.5963;            0   
      37;    48.4716;            0   
      38;    49.3469;            0   
      39;    50.2221;            0   
      40;    51.0974;            0   
      41;    51.9727;            0   
      42;    52.8480;            0   
      43;    53.7232;            0   
      44;    54.5985;            0   
      45;    55.4738;            1   
      46;    56.3491;           25   
      47;    57.2243;          127   
      48;    58.0996;          359   
      49;    58.9749;         1249   
      50;    59.8502;         4365   
      51;    60.7254;         7519   
      52;    61.6007;         8060   
      53;    62.4760;         8548   
      54;    63.3513;         9085   
      55;    64.2265;         8866   
      56;    65.1018;         8975   
      57;    65.9771;         8743   
      58;    66.8524;         8733   
      59;    67.7276;         8636   
      60;    68.6029;         8772   
      61;    69.4782;         8543   
      62;    70.3535;         8221   
      63;    71.2287;         8211   
      64;    72.1040;         8147   
      65;    72.9793;         7964   
      66;    73.8546;         8106   
      67;    74.7298;         8104   
      68;    75.6051;         7827   
      69;    76.4804;         7916   
      70;    77.3557;         7823   
      71;    78.2309;         7918   
      72;    79.1062;         7786   
      73;    79.9815;         7725   
      74;    80.8568;         7678   
      75;    81.7320;         7480   
      76;    82.6073;         7713   
      77;    83.4826;         7557   
      78;    84.3579;         7514   
      79;    85.2331;         7517   
      80;    86.1084;         7368   
      81;    86.9837;         7556   
      82;    87.8590;         7597   
      83;    88.7342;         7418   
      84;    89.6095;         7392   
      85;    90.4848;         7476   
      86;    91.3601;         7514   
      87;    92.2353;         7353   
      88;    93.1106;         7398   
      89;    93.9859;         7197   
      90;    94.8612;         7398   
      91;    95.7364;         7339   
      92;    96.6117;         7224   
      93;    97.4870;         7335   
      94;    98.3623;         7353   
      95;    99.2375;         7197   
      96;   100.1128;         7379   
      97;   100.9881;         7392   
      98;   101.8634;         7151   
      99;   102.7386;         7242   
     100;   103.6139;         7281   
     101;   104.4892;         7130   
     102;   105.3645;         7233   
     103;   106.2397;         7107   
     104;   107.1150;         7055   
     105;   107.9903;         7157   
     106;   108.8656;         7180   
     107;   109.7408;         7044   
     108;   110.6161;         7077   
     109;   111.4914;         6866   
     110;   112.3667;         7130   
     111;   113.2419;         7283   
     112;   114.1172;         6805   
     113;   114.9925;         7064   
     114;   115.8678;         7167   
     115;   116.7430;         7227   
     116;   117.6183;         7115   
     117;   118.4936;         6973   
     118;   119.3689;         7076   
     119;   120.2441;         7028   
     120;   121.1194;         7115   
     121;   121.9947;         7092   
     122;   122.8700;         7178   
     123;   123.7452;         7117   
     124;   124.6205;         7092   
     125;   125.4958;         7252   
     126;   126.3711;         6985   
     127;   127.2463;         7252   
     128;   128.1216;         7097   
     129;   128.9969;         7119   
     130;   129.8722;         7112   
     131;   130.7474;         7020   
     132;   131.6227;         6977   
     133;   132.4980;         7078   
     134;   133.3733;         7304   
     135;   134.2485;         7135   
     136;   135.1238;         7153   
     137;   135.9991;         7244   
     138;   136.8744;         7116   
     139;   137.7496;         7244   
     140;   138.6249;         7121   
     141;   139.5002;         7242   
     142;   140.3755;         7163   
     143;   141.2507;         7267   
     144;   142.1260;         7205   
     145;   143.0013;         7313   
     146;   143.8766;         7161   
     147;   144.7518;         7174   
     148;   145.6271;         7185   
     149;   146.5024;         7311   
     150;   147.3777;         7298   
     151;   148.2529;         7286   
     152;   149.1282;         7293   
     153;   150.0035;         7323   
     154;   150.8788;         7399   
     155;   151.7540;         7430   
     156;   152.6293;         7321   
     157;   153.5046;         7491   
     158;   154.3799;         7495   
     159;   155.2551;         7351   
     160;   156.1304;         7558   
     161;   157.0057;         7760   
     162;   157.8810;         7562   
     163;   158.7562;         7612   
     164;   159.6315;         7480   
     165;   160.5068;         7536   
     166;   161.3821;         7506   
     167;   162.2573;         7516   
     168;   163.1326;         7471   
     169;   164.0079;         7483   
     170;   164.8832;         7451   
     171;   165.7584;         7464   
     172;   166.6337;         7437   
     173;   167.5090;         7498   
     174;   168.3843;         7569   
     175;   169.2595;         7501   
     176;   170.1348;         7378   
     177;   171.0101;         7509   
     178;   171.8854;         7474   
     179;   172.7606;         7373   
     180;   173.6359;         7318   
     181;   174.5112;         7389   
     182;   175.3865;         7366   
     183;   176.2617;         7498   
     184;   177.1370;         7321   
     185;   178.0123;         7532   
     186;   178.8876;         7357   
     187;   179.7628;         7269   
     188;   180.6381;         7178   
     189;   181.5134;         7082   
     190;   182.3887;         7342   
     191;   183.2639;         7253   
     192;   184.1392;         7180   
     193;   185.0145;         7091   
     194;   185.8898;         7201   
     195;   186.7650;         6936   
     196;   187.6403;         6911   
     197;   188.5156;         7012   
     198;   189.3909;         6795   
     199;   190.2661;         6697   
     200;   191.1414;         6886   
     201;   192.0167;         6737   
     202;   192.8920;         6475   
     203;   193.7672;         6546   
     204;   194.6425;         6560   
     205;   195.5178;         6545   
     206;   196.3931;         6493   
     207;   197.2683;         6397   
     208;   198.1436;         6389   
     209;   199.0189;         6413   
     210;   199.8942;         6203   
     211;   200.7694;         6204   
     212;   201.6447;         6073   
     213;   202.5200;         5962   
     214;   203.3953;         5765   
     215;   204.2705;         5792   
     216;   205.1458;         5785   
     217;   206.0211;         5559   
     218;   206.8964;         5703   
     219;   207.7716;         5478   
     220;   208.6469;         5319   
     221;   209.5222;         5388   
     222;   210.3975;         5415   
     223;   211.2727;         5185   
     224;   212.1480;         5287   
     225;   213.0233;         5335   
     226;   213.8986;         5060   
     227;   214.7738;         4959   
     228;   215.6491;         4909   
     229;   216.5244;         4895   
     230;   217.3997;         4743   
     231;   218.2749;         4679   
     232;   219.1502;         4755   
     233;   220.0255;         4526   
     234;   220.9008;         4516   
     235;   221.7760;         4493   
     236;   222.6513;         4448   
     237;   223.5266;         4285   
     238;   224.4019;         4265   
     239;   225.2771;         4315   
     240;   226.1524;         4267   
     241;   227.0277;         4090   
     242;   227.9030;         4048   
     243;   228.7782;         4020   
     244;   229.6535;         4019   
     245;   230.5288;         3868   
     246;   231.4041;         3801   
     247;   232.2793;         3735   
     248;   233.1546;         3689   
     249;   234.0299;         3705   
     250;   234.9052;         3565   
     251;   235.7804;         3589   
     252;   236.6557;         3545   
     253;   237.5310;         3417   
     254;   238.4063;         3480   
     255;   239.2815;         3404   
     256;   240.1568;         3400   
     257;   241.0321;         3243   
     258;   241.9074;         3142   
     259;   242.7826;         3136   
     260;   243.6579;         3062   
     261;   244.5332;         2908   
     262;   245.4085;         2909   
     263;   246.2837;         2914   
     264;   247.1590;         2882   
     265;   248.0343;         2841   
     266;   248.9096;         2804   
     267;   249.7848;         2755   
     268;   250.6601;         2780   
     269;   251.5354;         2658   
     270;   252.4107;         2707   
     271;   253.2859;         2665   
     272;   254.1612;         2553   
     273;   255.0365;         2609   
     274;   255.9118;         2483   
     275;   256.7870;         2543   
     276;   257.6623;         2355   
     277;   258.5376;         2441   
     278;   259.4129;         2322   
     279;   260.2881;         2191   
     280;   261.1634;         2311   
     281;   262.0387;         2203   
     282;   262.9140;         2323   
     283;   263.7892;         2266   
     284;   264.6645;         2231   
     285;   265.5398;         2132   
     286;   266.4151;         2165   
     287;   267.2903;         2083   
     288;   268.1656;         2024   
     289;   269.0409;         2024   
     290;   269.9162;         2015   
     291;   270.7914;         1965   
     292;   271.6667;         1907   
     293;   272.5420;         1964   
     294;   273.4173;         1929   
     295;   274.2925;         1810   
     296;   275.1678;         1764   
     297;   276.0431;         1907   
     298;   276.9184;         1891   
     299;   277.7936;         1782   
     300;   278.6689;         1823   
     301;   279.5442;         1712   
     302;   280.4195;         1676   
     303;   281.2947;         1745   
     304;   282.1700;         1735   
     305;   283.0453;         1563   
     306;   283.9206;         1678   
     307;   284.7958;         1560   
     308;   285.6711;         1563   
     309;   286.5464;         1537   
     310;   287.4217;         1574   
     311;   288.2969;         1531   
     312;   289.1722;         1545   
     313;   290.0475;         1526   
     314;   290.9228;         1534   
     315;   291.7980;         1513   
     316;   292.6733;         1480   
     317;   293.5486;         1494   
     318;   294.4239;         1368   
     319;   295.2991;         1435   
     320;   296.1744;         1423   
     321;   297.0497;         1414   
     322;   297.9250;         1352   
     323;   298.8002;         1317   
     324;   299.6755;         1248   
     325;   300.5508;         1322   
     326;   301.4261;         1346   
     327;   302.3013;         1320   
     328;   303.1766;         1307   
     329;   304.0519;         1340   
     330;   304.9272;         1239   
     331;   305.8024;         1293   
     332;   306.6777;         1266   
     333;   307.5530;         1256   
     334;   308.4283;         1272   
     335;   309.3035;         1212   
     336;   310.1788;         1237   
     337;   311.0541;         1218   
     338;   311.9294;         1131   
     339;   312.8046;         1196   
     340;   313.6799;         1190   
     341;   314.5552;         1195   
     342;   315.4305;         1236   
     343;   316.3057;         1189   
     344;   317.1810;         1154   
     345;   318.0563;         1147   
     346;   318.9316;         1123   
     347;   319.8068;         1104   
     348;   320.6821;         1123   
     349;   321.5574;         1082   
     350;   322.4327;         1063   
     351;   323.3079;         1109   
     352;   324.1832;         1089   
     353;   325.0585;         1088   
     354;   325.9338;         1052   
     355;   326.8090;         1081   
     356;   327.6843;         1047   
     357;   328.5596;         1120   
     358;   329.4349;         1046   
     359;   330.3101;         1107   
     360;   331.1854;         1026   
     361;   332.0607;         1101   
     362;   332.9360;          991   
     363;   333.8112;         1061   
     364;   334.6865;         1027   
     365;   335.5618;          974   
     366;   336.4371;         1016   
     367;   337.3123;         1006   
     368;   338.1876;         1007   
     369;   339.0629;          940   
     370;   339.9382;          983   
     371;   340.8134;         1043   
     372;   341.6887;          957   
     373;   342.5640;          987   
     374;   343.4393;          984   
     375;   344.3145;          964   
     376;   345.1898;          939   
     377;   346.0651;          967   
     378;   346.9404;          995   
     379;   347.8156;          963   
     380;   348.6909;          997   
     381;   349.5662;          957   
     382;   350.4415;          942   
     383;   351.3167;          939   
     384;   352.1920;          920   
     385;   353.0673;         1023   
     386;   353.9426;          921   
     387;   354.8178;          939   
     388;   355.6931;          946   
     389;   356.5684;          982   
     390;   357.4437;          891   
     391;   358.3189;          925   
     392;   359.1942;          929   
     393;   360.0695;         1012   
     394;   360.9448;          889   
     395;   361.8200;          924   
     396;   362.6953;          946   
     397;   363.5706;          936   
     398;   364.4459;          883   
     399;   365.3211;          889   
     400;   366.1964;          899   
     401;   367.0717;          904   
     402;   367.9470;          905   
     403;   368.8222;          917   
     404;   369.6975;          873   
     405;   370.5728;          894   
     406;   371.4481;          878   
     407;   372.3233;          855   
     408;   373.1986;          900   
     409;   374.0739;          820   
     410;   374.9492;          890   
     411;   375.8244;          940   
     412;   376.6997;          851   
     413;   377.5750;          911   
     414;   378.4503;          886   
     415;   379.3255;          915   
     416;   380.2008;          828   
     417;   381.0761;          893   
     418;   381.9514;          855   
     419;   382.8266;          907   
     420;   383.7019;          894   
     421;   384.5772;          827   
     422;   385.4525;          827   
     423;   386.3277;          810   
     424;   387.2030;          871   
     425;   388.0783;          883   
     426;   388.9536;          840   
     427;   389.8288;          911   
     428;   390.7041;          894   
     429;   391.5794;          868   
     430;   392.4547;          886   
     431;   393.3299;          902   
     432;   394.2052;          868   
     433;   395.0805;          832   
     434;   395.9558;          873   
     435;   396.8310;          878   
     436;   397.7063;          816   
     437;   398.5816;          839   
     438;   399.4569;          816   
     439;   400.3321;          848   
     440;   401.2074;          862   
     441;   402.0827;          842   
     442;   402.9580;          869   
     443;   403.8332;          878   
     444;   404.7085;          868   
     445;   405.5838;          858   
     446;   406.4591;          854   
     447;   407.3343;          891   
     448;   408.2096;          821   
     449;   409.0849;          827   
     450;   409.9602;          885   
     451;   410.8354;          875   
     452;   411.7107;          828   
     453;   412.5860;          809   
     454;   413.4613;          823   
     455;   414.3365;          858   
     456;   415.2118;          847   
     457;   416.0871;          860   
     458;   416.9624;          909   
     459;   417.8376;          877   
     460;   418.7129;          890   
     461;   419.5882;          871   
     462;   420.4635;          847   
     463;   421.3387;          844   
     464;   422.2140;          894   
     465;   423.0893;          892   
     466;   423.9646;          825   
     467;   424.8398;          880   
     468;   425.7151;          858   
     469;   426.5904;          874   
     470;   427.4657;          832   
     471;   428.3409;          861   
     472;   429.2162;          826   
     473;   430.0915;          832   
     474;   430.9668;          865   
     475;   431.8420;          887   
     476;   432.7173;          839   
     477;   433.5926;          801   
     478;   434.4679;          786   
     479;   435.3431;          861   
     480;   436.2184;          910   
     481;   437.0937;          852   
     482;   437.9690;          868   
     483;   438.8442;          799   
     484;   439.7195;          817   
     485;   440.5948;          851   
     486;   441.4701;          858   
     487;   442.3453;          898   
     488;   443.2206;          846   
     489;   444.0959;          820   
     490;   444.9712;          796   
     491;   445.8464;          828   
     492;   446.7217;          849   
     493;   447.5970;          826   
     494;   448.4723;          863   
     495;   449.3475;          844   
     496;   450.2228;          853   
     497;   451.0981;          778   
     498;   451.9734;          876   
     499;   452.8486;          830   
     500;   453.7239;          812   
     501;   454.5992;          811   
     502;   455.4745;          850   
     503;   456.3497;          858   
     504;   457.2250;          841   
     505;   458.1003;          858   
     506;   458.9756;          888   
     507;   459.8508;          839   
     508;   460.7261;          870   
     509;   461.6014;          865   
     510;   462.4767;          816   
     511;   463.3519;          864   
     512;   464.2272;          904   
     513;   465.1025;          863   
     514;   465.9778;          836   
     515;   466.8530;          859   
     516;   467.7283;          885   
     517;   468.6036;          898   
     518;   469.4789;          894   
     519;   470.3541;          857   
     520;   471.2294;          848   
     521;   472.1047;          895   
     522;   472.9800;          810   
     523;   473.8552;          891   
     524;   474.7305;          865   
     525;   475.6058;          883   
     526;   476.4811;          911   
     527;   477.3563;          870   
     528;   478.2316;          857   
     529;   479.1069;          862   
     530;   479.9822;          872   
     531;   480.8574;          823   
     532;   481.7327;          902   
     533;   482.6080;          852   
     534;   483.4833;          903   
     535;   484.3585;          854   
     536;   485.2338;          898   
     537;   486.1091;          841   
     538;   486.9844;          889   
     539;   487.8596;          884   
     540;   488.7349;          852   
     541;   489.6102;          885   
     542;   490.4855;          931   
     543;   491.3607;          875   
     544;   492.2360;          885   
     545;   493.1113;          875   
     546;   493.9866;          872   
     547;   494.8618;          880   
     548;   495.7371;          912   
     549;   496.6124;          858   
     550;   497.4877;          868   
     551;   498.3629;          878   
     552;   499.2382;          879   
     553;   500.1135;          879   
     554;   500.9888;          921   
     555;   501.8640;          896   
     556;   502.7393;          922   
     557;   503.6146;          892   
     558;   504.4899;          892   
     559;   505.3651;          910   
     560;   506.2404;          860   
     561;   507.1157;          922   
     562;   507.9910;          875   
     563;   508.8662;          889   
     564;   509.7415;          970   
     565;   510.6168;          917   
     566;   511.4921;          902   
     567;   512.3673;          900   
     568;   513.2426;          969   
     569;   514.1179;          918   
     570;   514.9932;          931   
     571;   515.8684;          930   
     572;   516.7437;          832   
     573;   517.6190;          914   
     574;   518.4943;          916   
     575;   519.3695;          881   
     576;   520.2448;          897   
     577;   521.1201;          917   
     578;   521.9954;          896   
     579;   522.8706;          957   
     580;   523.7459;          936   
     581;   524.6212;          870   
     582;   525.4965;          886   
     583;   526.3717;          911   
     584;   527.2470;          968   
     585;   528.1223;          876   
     586;   528.9976;          953   
     587;   529.8728;          930   
     588;   530.7481;          959   
     589;   531.6234;          980   
     590;   532.4987;          959   
     591;   533.3739;          882   
     592;   534.2492;          974   
     593;   535.1245;          994   
     594;   535.9998;          920   
     595;   536.8750;          932   
     596;   537.7503;          971   
     597;   538.6256;          931   
     598;   539.5009;          974   
     599;   540.3761;          966   
     600;   541.2514;          955   
     601;   542.1267;          944   
     602;   543.0020;          950   
     603;   543.8772;          932   
     604;   544.7525;          965   
     605;   545.6278;          925   
     606;   546.5031;          935   
     607;   547.3783;          939   
     608;   548.2536;          923   
     609;   549.1289;          975   
     610;   550.0042;         1050   
     611;   550.8794;          922   
     612;   551.7547;          934   
     613;   552.6300;          975   
     614;   553.5053;          933   
     615;   554.3805;          989   
     616;   555.2558;          943   
     617;   556.1311;          983   
     618;   557.0064;         1006   
     619;   557.8816;          987   
     620;   558.7569;         1005   
     621;   559.6322;          996   
     622;   560.5075;          950   
     623;   561.3827;          953   
     624;   562.2580;         1062   
     625;   563.1333;          978   
     626;   564.0086;          966   
     627;   564.8838;          960   
     628;   565.7591;          893   
     629;   566.6344;          932   
     630;   567.5097;         1003   
     631;   568.3849;          944   
     632;   569.2602;         1007   
     633;   570.1355;          989   
     634;   571.0108;          947   
     635;   571.8860;          953   
     636;   572.7613;          987   
     637;   573.6366;          953   
     638;   574.5119;          995   
     639;   575.3871;          962   
     640;   576.2624;          959   
     641;   577.1377;          973   
     642;   578.0130;          960   
     643;   578.8882;          984   
     644;   579.7635;          935   
     645;   580.6388;          979   
     646;   581.5141;          978   
     647;   582.3893;         1010   
     648;   583.2646;          982   
     649;   584.1399;          890   
     650;   585.0152;          942   
     651;   585.8904;          934   
     652;   586.7657;          926   
     653;   587.6410;          976   
     654;   588.5163;          968   
     655;   589.3915;          997   
     656;   590.2668;          986   
     657;   591.1421;          958   
     658;   592.0174;          867   
     659;   592.8926;          954   
     660;   593.7679;          916   
     661;   594.6432;          977   
     662;   595.5185;          992   
     663;   596.3937;          936   
     664;   597.2690;          953   
     665;   598.1443;          972   
     666;   599.0196;          931   
     667;   599.8948;          945   
     668;   600.7701;          915   
     669;   601.6454;          918   
     670;   602.5207;          938   
     671;   603.3959;          954   
     672;   604.2712;          909   
     673;   605.1465;          907   
     674;   606.0218;          919   
     675;   606.8970;          913   
     676;   607.7723;          900   
     677;   608.6476;          879   
     678;   609.5229;          914   
     679;   610.3981;          909   
     680;   611.2734;          901   
     681;   612.1487;          877   
     682;   613.0240;          864   
     683;   613.8992;          916   
     684;   614.7745;          835   
     685;   615.6498;          875   
     686;   616.5251;          852   
     687;   617.4003;          846   
     688;   618.2756;          883   
     689;   619.1509;          832   
     690;   620.0262;          845   
     691;   620.9014;          872   
     692;   621.7767;          797   
     693;   622.6520;          826   
     694;   623.5273;          858   
     695;   624.4025;          899   
     696;   625.2778;          897   
     697;   626.1531;          799   
     698;   627.0284;          817   
     699;   627.9036;          830   
     700;   628.7789;          824   
     701;   629.6542;          785   
     702;   630.5295;          879   
     703;   631.4047;          789   
     704;   632.2800;          807   
     705;   633.1553;          781   
     706;   634.0306;          832   
     707;   634.9058;          781   
     708;   635.7811;          816   
     709;   636.6564;          809   
     710;   637.5317;          771   
     711;   638.4069;          794   
     712;   639.2822;          738   
     713;   640.1575;          749   
     714;   641.0328;          798   
     715;   641.9080;          748   
     716;   642.7833;          740   
     717;   643.6586;          778   
     718;   644.5339;          745   
     719;   645.4091;          713   
     720;   646.2844;          748   
     721;   647.1597;          729   
     722;   648.0350;          726   
     723;   648.9102;          723   
     724;   649.7855;          755   
     725;   650.6608;          707   
     726;   651.5361;          755   
     727;   652.4113;          768   
     728;   653.2866;          730   
     729;   654.1619;          723   
     730;   655.0372;          696   
     731;   655.9124;          725   
     732;   656.7877;          672   
     733;   657.6630;          726   
     734;   658.5383;          717   
     735;   659.4135;          682   
     736;   660.2888;          711   
     737;   661.1641;          694   
     738;   662.0394;          653   
     739;   662.9146;          673   
     740;   663.7899;          680   
     741;   664.6652;          697   
     742;   665.5405;          639   
     743;   666.4157;          627   
     744;   667.2910;          652   
     745;   668.1663;          683   
     746;   669.0416;          646   
     747;   669.9168;          650   
     748;   670.7921;          603   
     749;   671.6674;          647   
     750;   672.5427;          626   
     751;   673.4179;          636   
     752;   674.2932;          641   
     753;   675.1685;          630   
     754;   676.0438;          622   
     755;   676.9190;          615   
     756;   677.7943;          613   
     757;   678.6696;          597   
     758;   679.5449;          614   
     759;   680.4201;          608   
     760;   681.2954;          596   
     761;   682.1707;          558   
     762;   683.0460;          605   
     763;   683.9212;          636   
     764;   684.7965;          584   
     765;   685.6718;          612   
     766;   686.5471;          560   
     767;   687.4223;          583   
     768;   688.2976;          566   
     769;   689.1729;          553   
     770;   690.0482;          525   
     771;   690.9234;          538   
     772;   691.7987;          614   
     773;   692.6740;          538   
     774;   693.5493;          547   
     775;   694.4245;          546   
     776;   695.2998;          524   
     777;   696.1751;          510   
     778;   697.0504;          542   
     779;   697.9256;          512   
     780;   698.8009;          519   
     781;   699.6762;          495   
     782;   700.5515;          493   
     783;   701.4267;          510   
     784;   702.3020;          514   
     785;   703.1773;          520   
     786;   704.0526;          499   
     787;   704.9278;          519   
     788;   705.8031;          530   
     789;   706.6784;          489   
     790;   707.5537;          450   
     791;   708.4289;          540   
     792;   709.3042;          482   
     793;   710.1795;          490   
     794;   711.0548;          428   
     795;   711.9300;          478   
     796;   712.8053;          462   
     797;   713.6806;          465   
     798;   714.5559;          465   
     799;   715.4311;          443   
     800;   716.3064;          489   
     801;   717.1817;          449   
     802;   718.0570;          472   
     803;   718.9322;          479   
     804;   719.8075;          488   
     805;   720.6828;          465   
     806;   721.5581;          457   
     807;   722.4333;          425   
     808;   723.3086;          411   
     809;   724.1839;          444   
     810;   725.0592;          401   
     811;   725.9344;          416   
     812;   726.8097;          421   
     813;   727.6850;          406   
     814;   728.5603;          416   
     815;   729.4355;          427   
     816;   730.3108;          426   
     817;   731.1861;          363   
     818;   732.0614;          409   
     819;   732.9366;          409   
     820;   733.8119;          365   
     821;   734.6872;          359   
     822;   735.5625;          386   
     823;   736.4377;          378   
     824;   737.3130;          385   
     825;   738.1883;          388   
     826;   739.0636;          371   
     827;   739.9388;          381   
     828;   740.8141;          381   
     829;   741.6894;          343   
     830;   742.5647;          357   
     831;   743.4399;          361   
     832;   744.3152;          372   
     833;   745.1905;          368   
     834;   746.0658;          358   
     835;   746.9410;          349   
     836;   747.8163;          427   
     837;   748.6916;          366   
     838;   749.5669;          334   
     839;   750.4421;          374   
     840;   751.3174;          370   
     841;   752.1927;          325   
     842;   753.0680;          325   
     843;   753.9432;          326   
     844;   754.8185;          350   
     845;   755.6938;          342   
     846;   756.5691;          326   
     847;   757.4443;          313   
     848;   758.3196;          307   
     849;   759.1949;          340   
     850;   760.0702;          324   
     851;   760.9454;          340   
     852;   761.8207;          293   
     853;   762.6960;          315   
     854;   763.5713;          339   
     855;   764.4465;          323   
     856;   765.3218;          324   
     857;   766.1971;          294   
     858;   767.0724;          304   
     859;   767.9476;          334   
     860;   768.8229;          329   
     861;   769.6982;          300   
     862;   770.5735;          283   
     863;   771.4487;          270   
     864;   772.3240;          275   
     865;   773.1993;          297   
     866;   774.0746;          273   
     867;   774.9498;          279   
     868;   775.8251;          241   
     869;   776.7004;          284   
     870;   777.5757;          261   
     871;   778.4509;          259   
     872;   779.3262;          250   
     873;   780.2015;          250   
     874;   781.0768;          256   
     875;   781.9520;          255   
     876;   782.8273;          260   
     877;   783.7026;          252   
     878;   784.5779;          265   
     879;   785.4531;          280   
     880;   786.3284;          254   
     881;   787.2037;          244   
     882;   788.0790;          251   
     883;   788.9542;          241   
     884;   789.8295;          291   
     885;   790.7048;          242   
     886;   791.5801;          250   
     887;   792.4553;          219   
     888;   793.3306;          212   
     889;   794.2059;          213   
     890;   795.0812;          233   
     891;   795.9564;          232   
     892;   796.8317;          203   
     893;   797.7070;          231   
     894;   798.5823;          238   
     895;   799.4575;          212   
     896;   800.3328;          216   
     897;   801.2081;          216   
     898;   802.0834;          217   
     899;   802.9586;          222   
     900;   803.8339;          239   
     901;   804.7092;          223   
     902;   805.5845;          201   
     903;   806.4597;          232   
     904;   807.3350;          220   
     905;   808.2103;          215   
     906;   809.0856;          236   
     907;   809.9608;          193   
     908;   810.8361;          202   
     909;   811.7114;          210   
     910;   812.5867;          178   
     911;   813.4619;          207   
     912;   814.3372;          189   
     913;   815.2125;          194   
     914;   816.0878;          197   
     915;   816.9631;          186   
     916;   817.8383;          194   
     917;   818.7136;          192   
     918;   819.5889;          183   
     919;   820.4642;          196   
     920;   821.3394;          186   
     921;   822.2147;          190   
     922;   823.0900;          183   
     923;   823.9653;          164   
     924;   824.8405;          175   
     925;   825.7158;          194   
     926;   826.5911;          164   
     927;   827.4664;          178   
     928;   828.3416;          172   
     929;   829.2169;          166   
     930;   830.0922;          170   
     931;   830.9675;          159   
     932;   831.8427;          180   
     933;   832.7180;          170   
     934;   833.5933;          153   
     935;   834.4686;          156   
     936;   835.3438;          166   
     937;   836.2191;          149   
     938;   837.0944;          149   
     939;   837.9697;          141   
     940;   838.8449;          143   
     941;   839.7202;          140   
     942;   840.5955;          151   
     943;   841.4708;          137   
     944;   842.3460;          142   
     945;   843.2213;          130   
     946;   844.0966;          141   
     947;   844.9719;          136   
     948;   845.8471;          154   
     949;   846.7224;          137   
     950;   847.5977;          148   
     951;   848.4730;          142   
     952;   849.3482;          143   
     953;   850.2235;          129   
     954;   851.0988;          132   
     955;   851.9741;          132   
     956;   852.8493;          117   
     957;   853.7246;          115   
     958;   854.5999;          103   
     959;   855.4752;          129   
     960;   856.3504;          118   
     961;   857.2257;          133   
     962;   858.1010;          123   
     963;   858.9763;          120   
     964;   859.8515;          119   
     965;   860.7268;          119   
     966;   861.6021;          111   
     967;   862.4774;          109   
     968;   863.3526;          121   
     969;   864.2279;          135   
     970;   865.1032;          104   
     971;   865.9785;          117   
     972;   866.8537;          130   
     973;   867.7290;          112   
     974;   868.6043;          103   
     975;   869.4796;          116   
     976;   870.3548;           99   
     977;   871.2301;          102   
     978;   872.1054;          118   
     979;   872.9807;          115   
     980;   873.8559;           87   
     981;   874.7312;           85   
     982;   875.6065;          107   
     983;   876.4818;          115   
     984;   877.3570;           90   
     985;   878.2323;          117   
     986;   879.1076;          122   
     987;   879.9829;          119   
     988;   880.8581;          111   
     989;   881.7334;          113   
     990;   882.6087;          113   
     991;   883.4840;           98   
     992;   884.3592;          115   
     993;   885.2345;          102   
     994;   886.1098;           88   
     995;   886.9851;          103   
     996;   887.8603;           82   
     997;   888.7356;           97   
     998;   889.6109;           77   
     999;   890.4862;           97   
    1000;   891.3614;           98   
    1001;   892.2367;          101   
    1002;   893.1120;           95   
    1003;   893.9873;           86   
    1004;   894.8625;           92   
    1005;   895.7378;           67   
    1006;   896.6131;           93   
    1007;   897.4884;           81   
    1008;   898.3636;           88   
    1009;   899.2389;           84   
    1010;   900.1142;           77   
    1011;   900.9895;           69   
    1012;   901.8647;           85   
    1013;   902.7400;           70   
    1014;   903.6153;           78   
    1015;   904.4906;           66   
    1016;   905.3658;           75   
    1017;   906.2411;           78   
    1018;   907.1164;           85   
    1019;   907.9917;           81   
    1020;   908.8669;           71   
    1021;   909.7422;           74   
    1022;   910.6175;           75   
    1023;   911.4928;           77   
    1024;   912.3680;           67   
    1025;   913.2433;           74   
    1026;   914.1186;           74   
    1027;   914.9939;           75   
    1028;   915.8691;           65   
    1029;   916.7444;           56   
    1030;   917.6197;           78   
    1031;   918.4950;           74   
    1032;   919.3702;           62   
    1033;   920.2455;           60   
    1034;   921.1208;           65   
    1035;   921.9961;           59   
    1036;   922.8713;           52   
    1037;   923.7466;           58   
    1038;   924.6219;           61   
    1039;   925.4972;           55   
    1040;   926.3724;           67   
    1041;   927.2477;           67   
    1042;   928.1230;           65   
    1043;   928.9983;           65   
    1044;   929.8735;           59   
    1045;   930.7488;           60   
    1046;   931.6241;           60   
    1047;   932.4994;           47   
    1048;   933.3746;           51   
    1049;   934.2499;           48   
    1050;   935.1252;           55   
    1051;   936.0005;           42   
    1052;   936.8757;           52   
    1053;   937.7510;           60   
    1054;   938.6263;           62   
    1055;   939.5016;           64   
    1056;   940.3768;           40   
    1057;   941.2521;           44   
    1058;   942.1274;           51   
    1059;   943.0027;           45   
    1060;   943.8779;           50   
    1061;   944.7532;           55   
    1062;   945.6285;           46   
    1063;   946.5038;           40   
    1064;   947.3790;           42   
    1065;   948.2543;           44   
    1066;   949.1296;           54   
    1067;   950.0049;           52   
    1068;   950.8801;           42   
    1069;   951.7554;           54   
    1070;   952.6307;           50   
    1071;   953.5060;           49   
    1072;   954.3812;           46   
    1073;   955.2565;           29   
    1074;   956.1318;           44   
    1075;   957.0071;           47   
    1076;   957.8823;           39   
    1077;   958.7576;           37   
    1078;   959.6329;           47   
    1079;   960.5082;           49   
    1080;   961.3834;           46   
    1081;   962.2587;           31   
    1082;   963.1340;           42   
    1083;   964.0093;           30   
    1084;   964.8845;           31   
    1085;   965.7598;           40   
    1086;   966.6351;           26   
    1087;   967.5104;           49   
    1088;   968.3856;           39   
    1089;   969.2609;           25   
    1090;   970.1362;           43   
    1091;   971.0115;           40   
    1092;   971.8867;           35   
    1093;   972.7620;           33   
    1094;   973.6373;           38   
    1095;   974.5126;           39   
    1096;   975.3878;           36   
    1097;   976.2631;           49   
    1098;   977.1384;           30   
    1099;   978.0137;           47   
    1100;   978.8889;           47   
    1101;   979.7642;           29   
    1102;   980.6395;           38   
    1103;   981.5148;           26   
    1104;   982.3900;           34   
    1105;   983.2653;           39   
    1106;   984.1406;           41   
    1107;   985.0159;           33   
    1108;   985.8911;           34   
    1109;   986.7664;           31   
    1110;   987.6417;           29   
    1111;   988.5170;           26   
    1112;   989.3922;           28   
    1113;   990.2675;           26   
    1114;   991.1428;           31   
    1115;   992.0181;           33   
    1116;   992.8933;           28   
    1117;   993.7686;           25   
    1118;   994.6439;           31   
    1119;   995.5192;           27   
    1120;   996.3944;           24   
    1121;   997.2697;           30   
    1122;   998.1450;           16   
    1123;   999.0203;           25   
    1124;   999.8955;           28   
    1125;  1000.7708;           23   
    1126;  1001.6461;           23   
    1127;  1002.5214;           32   
    1128;  1003.3966;           26   
    1129;  1004.2719;           23   
    1130;  1005.1472;           27   
    1131;  1006.0225;           27   
    1132;  1006.8977;           19   
    1133;  1007.7730;           29   
    1134;  1008.6483;           32   
    1135;  1009.5236;           15   
    1136;  1010.3988;           22   
    1137;  1011.2741;           14   
    1138;  1012.1494;           17   
    1139;  1013.0247;           22   
    1140;  1013.8999;           26   
    1141;  1014.7752;           24   
    1142;  1015.6505;           17   
    1143;  1016.5258;           26   
    1144;  1017.4010;           20   
    1145;  1018.2763;           25   
    1146;  1019.1516;           16   
    1147;  1020.0269;           24   
    1148;  1020.9021;           24   
    1149;  1021.7774;           15   
    1150;  1022.6527;           19   
    1151;  1023.5280;           17   
    1152;  1024.4032;           21   
    1153;  1025.2785;           17   
    1154;  1026.1538;            4   
    1155;  1027.0291;           24   
    1156;  1027.9043;           19   
    1157;  1028.7796;           15   
    1158;  1029.6549;           20   
    1159;  1030.5302;           27   
    1160;  1031.4054;           16   
    1161;  1032.2807;           27   
    1162;  1033.1560;           16   
    1163;  1034.0313;           19   
    1164;  1034.9065;           21   
    1165;  1035.7818;           23   
    1166;  1036.6571;           15   
    1167;  1037.5324;           21   
    1168;  1038.4076;           17   
    1169;  1039.2829;           16   
    1170;  1040.1582;           14   
    1171;  1041.0335;           16   
    1172;  1041.9087;           12   
    1173;  1042.7840;           21   
    1174;  1043.6593;           12   
    1175;  1044.5346;           21   
    1176;  1045.4098;           10   
    1177;  1046.2851;           12   
    1178;  1047.1604;           10   
    1179;  1048.0357;           17   
    1180;  1048.9109;           16   
    1181;  1049.7862;           11   
    1182;  1050.6615;           12   
    1183;  1051.5368;           15   
    1184;  1052.4120;           15   
    1185;  1053.2873;           14   
    1186;  1054.1626;           15   
    1187;  1055.0379;           13   
    1188;  1055.9131;           12   
    1189;  1056.7884;           14   
    1190;  1057.6637;           13   
    1191;  1058.5390;           13   
    1192;  1059.4142;           15   
    1193;  1060.2895;           25   
    1194;  1061.1648;           14   
    1195;  1062.0401;           15   
    1196;  1062.9153;           15   
    1197;  1063.7906;           14   
    1198;  1064.6659;           10   
    1199;  1065.5412;           11   
    1200;  1066.4164;            8   
    1201;  1067.2917;           11   
    1202;  1068.1670;            9   
    1203;  1069.0423;           16   
    1204;  1069.9175;           14   
    1205;  1070.7928;            8   
    1206;  1071.6681;           18   
    1207;  1072.5434;           14   
    1208;  1073.4186;           11   
    1209;  1074.2939;            7   
    1210;  1075.1692;           11   
    1211;  1076.0445;            9   
    1212;  1076.9197;           13   
    1213;  1077.7950;            6   
    1214;  1078.6703;           11   
    1215;  1079.5456;           11   
    1216;  1080.4208;           10   
    1217;  1081.2961;           11   
    1218;  1082.1714;           14   
    1219;  1083.0467;            9   
    1220;  1083.9219;            8   
    1221;  1084.7972;           11   
    1222;  1085.6725;           10   
    1223;  1086.5478;           10   
    1224;  1087.4230;            5   
    1225;  1088.2983;            9   
    1226;  1089.1736;            6   
    1227;  1090.0489;            6   
    1228;  1090.9241;            2   
    1229;  1091.7994;            7   
    1230;  1092.6747;            5   
    1231;  1093.5500;            1   
    1232;  1094.4252;            3   
    1233;  1095.3005;           11   
    1234;  1096.1758;            4   
    1235;  1097.0511;            8   
    1236;  1097.9263;            6   
    1237;  1098.8016;            7   
    1238;  1099.6769;           11   
    1239;  1100.5522;            7   
    1240;  1101.4274;            8   
    1241;  1102.3027;            6   
    1242;  1103.1780;            8   
    1243;  1104.0533;            5   
    1244;  1104.9285;           11   
    1245;  1105.8038;           10   
    1246;  1106.6791;            4   
    1247;  1107.5544;           12   
    1248;  1108.4296;            7   
    1249;  1109.3049;            6   
    1250;  1110.1802;            7   
    1251;  1111.0555;            9   
    1252;  1111.9307;            6   
    1253;  1112.8060;            4   
    1254;  1113.6813;            5   
    1255;  1114.5566;            4   
    1256;  1115.4318;            7   
    1257;  1116.3071;            5   
    1258;  1117.1824;            7   
    1259;  1118.0577;            6   
    1260;  1118.9329;            9   
    1261;  1119.8082;            5   
    1262;  1120.6835;            5   
    1263;  1121.5588;            6   
    1264;  1122.4340;            4   
    1265;  1123.3093;            5   
    1266;  1124.1846;            6   
    1267;  1125.0599;            5   
    1268;  1125.9351;            5   
    1269;  1126.8104;            4   
    1270;  1127.6857;            3   
    1271;  1128.5610;            5   
    1272;  1129.4362;            6   
    1273;  1130.3115;            2   
    1274;  1131.1868;            3   
    1275;  1132.0621;            3   
    1276;  1132.9373;            4   
    1277;  1133.8126;            5   
    1278;  1134.6879;            7   
    1279;  1135.5632;            1   
    1280;  1136.4384;            2   
    1281;  1137.3137;            2   
    1282;  1138.1890;            6   
    1283;  1139.0643;            2   
    1284;  1139.9395;            4   
    1285;  1140.8148;            4   
    1286;  1141.6901;            4   
    1287;  1142.5654;            3   
    1288;  1143.4406;            3   
    1289;  1144.3159;            4   
    1290;  1145.1912;            6   
    1291;  1146.0665;            2   
    1292;  1146.9417;            4   
    1293;  1147.8170;            3   
    1294;  1148.6923;            4   
    1295;  1149.5676;            6   
    1296;  1150.4428;            3   
    1297;  1151.3181;            3   
    1298;  1152.1934;           11   
    1299;  1153.0687;            3   
    1300;  1153.9439;            2   
    1301;  1154.8192;            3   
    1302;  1155.6945;            5   
    1303;  1156.5698;            3   
    1304;  1157.4450;            5   
    1305;  1158.3203;            3   
    1306;  1159.1956;            1   
    1307;  1160.0709;            3   
    1308;  1160.9461;            3   
    1309;  1161.8214;            1   
    1310;  1162.6967;            6   
    1311;  1163.5720;            4   
    1312;  1164.4472;            2   
    1313;  1165.3225;            5   
    1314;  1166.1978;            2   
    1315;  1167.0731;            1   
    1316;  1167.9483;            5   
    1317;  1168.8236;            2   
    1318;  1169.6989;            3   
    1319;  1170.5742;            0   
    1320;  1171.4494;            3   
    1321;  1172.3247;            2   
    1322;  1173.2000;            3   
    1323;  1174.0753;            3   
    1324;  1174.9505;            2   
    1325;  1175.8258;            1   
    1326;  1176.7011;            2   
    1327;  1177.5764;            2   
    1328;  1178.4516;            0   
    1329;  1179.3269;            3   
    1330;  1180.2022;            1   
    1331;  1181.0775;            3   
    1332;  1181.9527;            3   
    1333;  1182.8280;            0   
    1334;  1183.7033;            0   
    1335;  1184.5786;            5   
    1336;  1185.4538;            2   
    1337;  1186.3291;            1   
    1338;  1187.2044;            2   
    1339;  1188.0797;            0   
    1340;  1188.9549;            0   
    1341;  1189.8302;            3   
    1342;  1190.7055;            1   
    1343;  1191.5808;            3   
    1344;  1192.4560;            4   
    1345;  1193.3313;            0   
    1346;  1194.2066;            2   
    1347;  1195.0819;            1   
    1348;  1195.9571;            4   
    1349;  1196.8324;            2   
    1350;  1197.7077;            3   
    1351;  1198.5830;            1   
    1352;  1199.4582;            3   
    1353;  1200.3335;            1   
    1354;  1201.2088;            2   
    1355;  1202.0841;            2   
    1356;  1202.9593;            2   
    1357;  1203.8346;            4   
    1358;  1204.7099;            0   
    1359;  1205.5852;            2   
    1360;  1206.4604;            2   
    1361;  1207.3357;            3   
    1362;  1208.2110;            1   
    1363;  1209.0863;            0   
    1364;  1209.9615;            1   
    1365;  1210.8368;            3   
    1366;  1211.7121;            2   
    1367;  1212.5874;            1   
    1368;  1213.4626;            2   
    1369;  1214.3379;            1   
    1370;  1215.2132;            2   
    1371;  1216.0885;            2   
    1372;  1216.9637;            1   
    1373;  1217.8390;            3   
    1374;  1218.7143;            2   
    1375;  1219.5896;            0   
    1376;  1220.4648;            1   
    1377;  1221.3401;            1   
    1378;  1222.2154;            1   
    1379;  1223.0907;            1   
    1380;  1223.9659;            0   
    1381;  1224.8412;            1   
    1382;  1225.7165;            3   
    1383;  1226.5918;            2   
    1384;  1227.4670;            0   
    1385;  1228.3423;            3   
    1386;  1229.2176;            1   
    1387;  1230.0929;            3   
    1388;  1230.9681;            1   
    1389;  1231.8434;            2   
    1390;  1232.7187;            0   
    1391;  1233.5940;            0   
    1392;  1234.4692;            2   
    1393;  1235.3445;            1   
    1394;  1236.2198;            3   
    1395;  1237.0951;            1   
    1396;  1237.9703;            3   
    1397;  1238.8456;            0   
    1398;  1239.7209;            1   
    1399;  1240.5962;            0   
    1400;  1241.4714;            0   
    1401;  1242.3467;            0   
    1402;  1243.2220;            2   
    1403;  1244.0973;            1   
    1404;  1244.9725;            1   
    1405;  1245.8478;            0   
    1406;  1246.7231;            2   
    1407;  1247.5984;            1   
    1408;  1248.4736;            0   
    1409;  1249.3489;            0   
    1410;  1250.2242;            1   
    1411;  1251.0995;            3   
    1412;  1251.9747;            0   
    1413;  1252.8500;            0   
    1414;  1253.7253;            0   
    1415;  1254.6006;            1   
    1416;  1255.4758;            2   
    1417;  1256.3511;            1   
    1418;  1257.2264;            2   
    1419;  1258.1017;            2   
    1420;  1258.9769;            1   
    1421;  1259.8522;            1   
    1422;  1260.7275;            0   
    1423;  1261.6028;            2   
    1424;  1262.4780;            0   
    1425;  1263.3533;            0   
    1426;  1264.2286;            1   
    1427;  1265.1039;            1   
    1428;  1265.9791;            1   
    1429;  1266.8544;            2   
    1430;  1267.7297;            0   
    1431;  1268.6050;            2   
    1432;  1269.4802;            0   
    1433;  1270.3555;            0   
    1434;  1271.2308;            0   
    1435;  1272.1061;            1   
    1436;  1272.9813;            1   
    1437;  1273.8566;            1   
    1438;  1274.7319;            1   
    1439;  1275.6072;            0   
    1440;  1276.4824;            0   
    1441;  1277.3577;            1   
    1442;  1278.2330;            1   
    1443;  1279.1083;            1   
    1444;  1279.9835;            1   
    1445;  1280.8588;            3   
    1446;  1281.7341;            1   
    1447;  1282.6094;            0   
    1448;  1283.4846;            1   
    1449;  1284.3599;            1   
    1450;  1285.2352;            0   
    1451;  1286.1105;            1   
    1452;  1286.9857;            0   
    1453;  1287.8610;            0   
    1454;  1288.7363;            2   
    1455;  1289.6116;            1   
    1456;  1290.4868;            1   
    1457;  1291.3621;            1   
    1458;  1292.2374;            0   
    1459;  1293.1127;            0   
    1460;  1293.9879;            0   
    1461;  1294.8632;            0   
    1462;  1295.7385;            0   
    1463;  1296.6138;            0   
    1464;  1297.4890;            0   
    1465;  1298.3643;            0   
    1466;  1299.2396;            0   
    1467;  1300.1149;            1   
    1468;  1300.9901;            1   
    1469;  1301.8654;            0   
    1470;  1302.7407;            1   
    1471;  1303.6160;            0   
    1472;  1304.4912;            0   
    1473;  1305.3665;            0   
    1474;  1306.2418;            1   
    1475;  1307.1171;            1   
    1476;  1307.9923;            0   
    1477;  1308.8676;            0   
    1478;  1309.7429;            0   
    1479;  1310.6182;            1   
    1480;  1311.4934;            0   
    1481;  1312.3687;            1   
    1482;  1313.2440;            0   
    1483;  1314.1193;            0   
    1484;  1314.9945;            0   
    1485;  1315.8698;            2   
    1486;  1316.7451;            0   
    1487;  1317.6204;            0   
    1488;  1318.4956;            1   
    1489;  1319.3709;            1   
    1490;  1320.2462;            0   
    1491;  1321.1215;            0   
    1492;  1321.9967;            0   
    1493;  1322.8720;            0   
    1494;  1323.7473;            1   
    1495;  1324.6226;            0   
    1496;  1325.4978;            1   
    1497;  1326.3731;            0   
    1498;  1327.2484;            0   
    1499;  1328.1237;            0   
    1500;  1328.9989;            0   
    1501;  1329.8742;            0   
    1502;  1330.7495;            0   
    1503;  1331.6248;            1   
    1504;  1332.5000;            1   
    1505;  1333.3753;            0   
    1506;  1334.2506;            1   
    1507;  1335.1259;            0   
    1508;  1336.0011;            0   
    1509;  1336.8764;            1   
    1510;  1337.7517;            0   
    1511;  1338.6270;            0   
    1512;  1339.5022;            0   
    1513;  1340.3775;            2   
    1514;  1341.2528;            0   
    1515;  1342.1281;            0   
    1516;  1343.0033;            0   
    1517;  1343.8786;            1   
    1518;  1344.7539;            2   
    1519;  1345.6292;            0   
    1520;  1346.5044;            0   
    1521;  1347.3797;            0   
    1522;  1348.2550;            0   
    1523;  1349.1303;            0   
    1524;  1350.0055;            0   
    1525;  1350.8808;            3   
    1526;  1351.7561;            0   
    1527;  1352.6314;            2   
    1528;  1353.5066;            0   
    1529;  1354.3819;            0   
    1530;  1355.2572;            0   
    1531;  1356.1325;            0   
    1532;  1357.0077;            0   
    1533;  1357.8830;            0   
    1534;  1358.7583;            0   
    1535;  1359.6336;            0   
    1536;  1360.5088;            0   
    1537;  1361.3841;            0   
    1538;  1362.2594;            1   
    1539;  1363.1347;            0   
    1540;  1364.0099;            1   
    1541;  1364.8852;            1   
    1542;  1365.7605;            0   
    1543;  1366.6358;            0   
    1544;  1367.5110;            0   
    1545;  1368.3863;            0   
    1546;  1369.2616;            0   
    1547;  1370.1369;            0   
    1548;  1371.0121;            0   
    1549;  1371.8874;            0   
    1550;  1372.7627;            0   
    1551;  1373.6380;            0   
    1552;  1374.5132;            0   
    1553;  1375.3885;            1   
    1554;  1376.2638;            0   
    1555;  1377.1391;            2   
    1556;  1378.0143;            0   
    1557;  1378.8896;            0   
    1558;  1379.7649;            1   
    1559;  1380.6402;            0   
    1560;  1381.5154;            1   
    1561;  1382.3907;            0   
    1562;  1383.2660;            0   
    1563;  1384.1413;            0   
    1564;  1385.0165;            0   
    1565;  1385.8918;            0   
    1566;  1386.7671;            0   
    1567;  1387.6424;            0   
    1568;  1388.5176;            1   
    1569;  1389.3929;            1   
    1570;  1390.2682;            0   
    1571;  1391.1435;            0   
    1572;  1392.0187;            0   
    1573;  1392.8940;            0   
    1574;  1393.7693;            0   
    1575;  1394.6446;            0   
    1576;  1395.5198;            0   
    1577;  1396.3951;            0   
    1578;  1397.2704;            0   
    1579;  1398.1457;            0   
    1580;  1399.0209;            0   
    1581;  1399.8962;            2   
    1582;  1400.7715;            0   
    1583;  1401.6468;            1   
    1584;  1402.5220;            0   
    1585;  1403.3973;            0   
    1586;  1404.2726;            0   
    1587;  1405.1479;            0   
    1588;  1406.0231;            0   
    1589;  1406.8984;            0   
    1590;  1407.7737;            1   
    1591;  1408.6490;            0   
    1592;  1409.5242;            1   
    1593;  1410.3995;            0   
    1594;  1411.2748;            1   
    1595;  1412.1501;            1   
    1596;  1413.0253;            1   
    1597;  1413.9006;            1   
    1598;  1414.7759;            0   
    1599;  1415.6512;            0   
    1600;  1416.5264;            1   
    1601;  1417.4017;            0   
    1602;  1418.2770;            0   
    1603;  1419.1523;            0   
    1604;  1420.0275;            0   
    1605;  1420.9028;            0   
    1606;  1421.7781;            1   
    1607;  1422.6534;            3   
    1608;  1423.5286;            0   
    1609;  1424.4039;            0   
    1610;  1425.2792;            1   
    1611;  1426.1545;            1   
    1612;  1427.0297;            0   
    1613;  1427.9050;            1   
    1614;  1428.7803;            1   
    1615;  1429.6556;            2   
    1616;  1430.5308;            1   
    1617;  1431.4061;            0   
    1618;  1432.2814;            1   
    1619;  1433.1567;            0   
    1620;  1434.0319;            0   
    1621;  1434.9072;            0   
    1622;  1435.7825;            0   
    1623;  1436.6578;            1   
    1624;  1437.5330;            0   
    1625;  1438.4083;            0   
    1626;  1439.2836;            0   
    1627;  1440.1589;            0   
    1628;  1441.0341;            0   
    1629;  1441.9094;            0   
    1630;  1442.7847;            1   
    1631;  1443.6600;            1   
    1632;  1444.5352;            0   
    1633;  1445.4105;            0   
    1634;  1446.2858;            1   
    1635;  1447.1611;            0   
    1636;  1448.0363;            0   
    1637;  1448.9116;            0   
    1638;  1449.7869;            1   
    1639;  1450.6622;            0   
    1640;  1451.5374;            0   
    1641;  1452.4127;            0   
    1642;  1453.2880;            0   
    1643;  1454.1633;            0   
    1644;  1455.0385;            0   
    1645;  1455.9138;            0   
    1646;  1456.7891;            0   
    1647;  1457.6644;            0   
    1648;  1458.5396;            1   
    1649;  1459.4149;            0   
    1650;  1460.2902;            0   
    1651;  1461.1655;            1   
    1652;  1462.0407;            1   
    1653;  1462.9160;            0   
    1654;  1463.7913;            0   
    1655;  1464.6666;            0   
    1656;  1465.5418;            0   
    1657;  1466.4171;            0   
    1658;  1467.2924;            0   
    1659;  1468.1677;            0   
    1660;  1469.0429;            0   
    1661;  1469.9182;            1   
    1662;  1470.7935;            2   
    1663;  1471.6688;            0   
    1664;  1472.5440;            0   
    1665;  1473.4193;            0   
    1666;  1474.2946;            0   
    1667;  1475.1699;            0   
    1668;  1476.0451;            0   
    1669;  1476.9204;            0   
    1670;  1477.7957;            0   
    1671;  1478.6710;            0   
    1672;  1479.5462;            1   
    1673;  1480.4215;            0   
    1674;  1481.2968;            0   
    1675;  1482.1721;            0   
    1676;  1483.0473;            1   
    1677;  1483.9226;            0   
    1678;  1484.7979;            0   
    1679;  1485.6732;            1   
    1680;  1486.5484;            0   
    1681;  1487.4237;            0   
    1682;  1488.2990;            1   
    1683;  1489.1743;            0   
    1684;  1490.0495;            0   
    1685;  1490.9248;            0   
    1686;  1491.8001;            0   
    1687;  1492.6754;            0   
    1688;  1493.5506;            0   
    1689;  1494.4259;            0   
    1690;  1495.3012;            0   
    1691;  1496.1765;            0   
    1692;  1497.0517;            0   
    1693;  1497.9270;            0   
    1694;  1498.8023;            0   
    1695;  1499.6776;            0   
    1696;  1500.5528;            1   
    1697;  1501.4281;            0   
    1698;  1502.3034;            0   
    1699;  1503.1787;            0   
    1700;  1504.0539;            0   
    1701;  1504.9292;            0   
    1702;  1505.8045;            2   
    1703;  1506.6798;            1   
    1704;  1507.5550;            0   
    1705;  1508.4303;            0   
    1706;  1509.3056;            0   
    1707;  1510.1809;            0   
    1708;  1511.0561;            0   
    1709;  1511.9314;            0   
    1710;  1512.8067;            0   
    1711;  1513.6820;            0   
    1712;  1514.5572;            0   
    1713;  1515.4325;            1   
    1714;  1516.3078;            1   
    1715;  1517.1831;            0   
    1716;  1518.0583;            0   
    1717;  1518.9336;            0   
    1718;  1519.8089;            0   
    1719;  1520.6842;            1   
    1720;  1521.5594;            1   
    1721;  1522.4347;            0   
    1722;  1523.3100;            0   
    1723;  1524.1853;            0   
    1724;  1525.0605;            0   
    1725;  1525.9358;            0   
    1726;  1526.8111;            0   
    1727;  1527.6864;            0   
    1728;  1528.5616;            0   
    1729;  1529.4369;            0   
    1730;  1530.3122;            0   
    1731;  1531.1875;            0   
    1732;  1532.0627;            1   
    1733;  1532.9380;            0   
    1734;  1533.8133;            0   
    1735;  1534.6886;            0   
    1736;  1535.5638;            0   
    1737;  1536.4391;            0   
    1738;  1537.3144;            0   
    1739;  1538.1897;            0   
    1740;  1539.0649;            1   
    1741;  1539.9402;            0   
    1742;  1540.8155;            0   
    1743;  1541.6908;            1   
    1744;  1542.5660;            0   
    1745;  1543.4413;            0   
    1746;  1544.3166;            0   
    1747;  1545.1919;            0   
    1748;  1546.0671;            0   
    1749;  1546.9424;            0   
    1750;  1547.8177;            0   
    1751;  1548.6930;            1   
    1752;  1549.5682;            2   
    1753;  1550.4435;            0   
    1754;  1551.3188;            0   
    1755;  1552.1941;            0   
    1756;  1553.0693;            0   
    1757;  1553.9446;            0   
    1758;  1554.8199;            0   
    1759;  1555.6952;            0   
    1760;  1556.5704;            0   
    1761;  1557.4457;            0   
    1762;  1558.3210;            0   
    1763;  1559.1963;            0   
    1764;  1560.0715;            0   
    1765;  1560.9468;            0   
    1766;  1561.8221;            0   
    1767;  1562.6974;            0   
    1768;  1563.5726;            0   
    1769;  1564.4479;            1   
    1770;  1565.3232;            0   
    1771;  1566.1985;            0   
    1772;  1567.0737;            0   
    1773;  1567.9490;            0   
    1774;  1568.8243;            0   
    1775;  1569.6996;            0   
    1776;  1570.5748;            0   
    1777;  1571.4501;            1   
    1778;  1572.3254;            0   
    1779;  1573.2007;            0   
    1780;  1574.0759;            0   
    1781;  1574.9512;            0   
    1782;  1575.8265;            0   
    1783;  1576.7018;            0   
    1784;  1577.5770;            0   
    1785;  1578.4523;            0   
    1786;  1579.3276;            0   
    1787;  1580.2029;            1   
    1788;  1581.0781;            0   
    1789;  1581.9534;            0   
    1790;  1582.8287;            0   
    1791;  1583.7040;            1   
    1792;  1584.5792;            0   
    1793;  1585.4545;            1   
    1794;  1586.3298;            0   
    1795;  1587.2051;            0   
    1796;  1588.0803;            1   
    1797;  1588.9556;            0   
    1798;  1589.8309;            0   
    1799;  1590.7062;            0   
    1800;  1591.5814;            0   
    1801;  1592.4567;            0   
    1802;  1593.3320;            0   
    1803;  1594.2073;            0   
    1804;  1595.0825;            0   
    1805;  1595.9578;            2   
    1806;  1596.8331;            0   
    1807;  1597.7084;            0   
    1808;  1598.5836;            0   
    1809;  1599.4589;            0   
    1810;  1600.3342;            1   
    1811;  1601.2095;            0   
    1812;  1602.0847;            0   
    1813;  1602.9600;            0   
    1814;  1603.8353;            0   
    1815;  1604.7106;            0   
    1816;  1605.5858;            0   
    1817;  1606.4611;            0   
    1818;  1607.3364;            0   
    1819;  1608.2117;            0   
    1820;  1609.0869;            1   
    1821;  1609.9622;            0   
    1822;  1610.8375;            0   
    1823;  1611.7128;            0   
    1824;  1612.5880;            0   
    1825;  1613.4633;            0   
    1826;  1614.3386;            0   
    1827;  1615.2139;            0   
    1828;  1616.0891;            0   
    1829;  1616.9644;            0   
    1830;  1617.8397;            0   
    1831;  1618.7150;            0   
    1832;  1619.5902;            0   
    1833;  1620.4655;            0   
    1834;  1621.3408;            0   
    1835;  1622.2161;            1   
    1836;  1623.0913;            0   
    1837;  1623.9666;            0   
    1838;  1624.8419;            1   
    1839;  1625.7172;            0   
    1840;  1626.5924;            0   
    1841;  1627.4677;            0   
    1842;  1628.3430;            0   
    1843;  1629.2183;            0   
    1844;  1630.0935;            2   
    1845;  1630.9688;            0   
    1846;  1631.8441;            0   
    1847;  1632.7194;            0   
    1848;  1633.5946;            0   
    1849;  1634.4699;            0   
    1850;  1635.3452;            0   
    1851;  1636.2205;            1   
    1852;  1637.0957;            2   
    1853;  1637.9710;            0   
    1854;  1638.8463;            0   
    1855;  1639.7216;            0   
    1856;  1640.5968;            0   
    1857;  1641.4721;            0   
    1858;  1642.3474;            0   
    1859;  1643.2227;            0   
    1860;  1644.0979;            0   
    1861;  1644.9732;            0   
    1862;  1645.8485;            0   
    1863;  1646.7238;            0   
    1864;  1647.5990;            0   
    1865;  1648.4743;            0   
    1866;  1649.3496;            0   
    1867;  1650.2249;            0   
    1868;  1651.1001;            0   
    1869;  1651.9754;            0   
    1870;  1652.8507;            0   
    1871;  1653.7260;            0   
    1872;  1654.6012;            0   
    1873;  1655.4765;            0   
    1874;  1656.3518;            0   
    1875;  1657.2271;            0   
    1876;  1658.1023;            0   
    1877;  1658.9776;            0   
    1878;  1659.8529;            0   
    1879;  1660.7282;            0   
    1880;  1661.6034;            0   
    1881;  1662.4787;            0   
    1882;  1663.3540;            0   
    1883;  1664.2293;            1   
    1884;  1665.1045;            0   
    1885;  1665.9798;            0   
    1886;  1666.8551;            0   
    1887;  1667.7304;            0   
    1888;  1668.6056;            1   
    1889;  1669.4809;            0   
    1890;  1670.3562;            0   
    1891;  1671.2315;            0   
    1892;  1672.1067;            0   
    1893;  1672.9820;            0   
    1894;  1673.8573;            0   
    1895;  1674.7326;            0   
    1896;  1675.6078;            0   
    1897;  1676.4831;            0   
    1898;  1677.3584;            0   
    1899;  1678.2337;            0   
    1900;  1679.1089;            0   
    1901;  1679.9842;            0   
    1902;  1680.8595;            1   
    1903;  1681.7348;            0   
    1904;  1682.6100;            1   
    1905;  1683.4853;            0   
    1906;  1684.3606;            0   
    1907;  1685.2359;            0   
    1908;  1686.1111;            0   
    1909;  1686.9864;            0   
    1910;  1687.8617;            1   
    1911;  1688.7370;            0   
    1912;  1689.6122;            0   
    1913;  1690.4875;            0   
    1914;  1691.3628;            0   
    1915;  1692.2381;            0   
    1916;  1693.1133;            0   
    1917;  1693.9886;            1   
    1918;  1694.8639;            0   
    1919;  1695.7392;            0   
    1920;  1696.6144;            0   
    1921;  1697.4897;            0   
    1922;  1698.3650;            0   
    1923;  1699.2403;            0   
    1924;  1700.1155;            0   
    1925;  1700.9908;            0   
    1926;  1701.8661;            0   
    1927;  1702.7414;            0   
    1928;  1703.6166;            1   
    1929;  1704.4919;            1   
    1930;  1705.3672;            0   
    1931;  1706.2425;            0   
    1932;  1707.1177;            1   
    1933;  1707.9930;            0   
    1934;  1708.8683;            0   
    1935;  1709.7436;            0   
    1936;  1710.6188;            0   
    1937;  1711.4941;            1   
    1938;  1712.3694;            0   
    1939;  1713.2447;            0   
    1940;  1714.1199;            0   
    1941;  1714.9952;            0   
    1942;  1715.8705;            0   
    1943;  1716.7458;            1   
    1944;  1717.6210;            1   
    1945;  1718.4963;            0   
    1946;  1719.3716;            0   
    1947;  1720.2469;            0   
    1948;  1721.1221;            0   
    1949;  1721.9974;            0   
    1950;  1722.8727;            0   
    1951;  1723.7480;            0   
    1952;  1724.6232;            0   
    1953;  1725.4985;            0   
    1954;  1726.3738;            0   
    1955;  1727.2491;            0   
    1956;  1728.1243;            0   
    1957;  1728.9996;            0   
    1958;  1729.8749;            0   
    1959;  1730.7502;            0   
    1960;  1731.6254;            0   
    1961;  1732.5007;            0   
    1962;  1733.3760;            0   
    1963;  1734.2513;            0   
    1964;  1735.1265;            0   
    1965;  1736.0018;            0   
    1966;  1736.8771;            0   
    1967;  1737.7524;            0   
    1968;  1738.6276;            0   
    1969;  1739.5029;            0   
    1970;  1740.3782;            0   
    1971;  1741.2535;            0   
    1972;  1742.1287;            0   
    1973;  1743.0040;            0   
    1974;  1743.8793;            0   
    1975;  1744.7546;            0   
    1976;  1745.6298;            0   
    1977;  1746.5051;            0   
    1978;  1747.3804;            0   
    1979;  1748.2557;            0   
    1980;  1749.1309;            0   
    1981;  1750.0062;            0   
    1982;  1750.8815;            0   
    1983;  1751.7568;            0   
    1984;  1752.6320;            0   
    1985;  1753.5073;            0   
    1986;  1754.3826;            0   
    1987;  1755.2579;            0   
    1988;  1756.1331;            0   
    1989;  1757.0084;            0   
    1990;  1757.8837;            0   
    1991;  1758.7590;            0   
    1992;  1759.6342;            0   
    1993;  1760.5095;            0   
    1994;  1761.3848;            0   
    1995;  1762.2601;            0   
    1996;  1763.1353;            0   
    1997;  1764.0106;            0   
    1998;  1764.8859;            0   
    1999;  1765.7612;            0   
    2000;  1766.6364;            0   
    2001;  1767.5117;            0   
    2002;  1768.3870;            0   
    2003;  1769.2623;            0   
    2004;  1770.1375;            0   
    2005;  1771.0128;            0   
    2006;  1771.8881;            0   
    2007;  1772.7634;            0   
    2008;  1773.6386;            0   
    2009;  1774.5139;            0   
    2010;  1775.3892;            0   
    2011;  1776.2645;            0   
    2012;  1777.1397;            0   
    2013;  1778.0150;            0   
    2014;  1778.8903;            0   
    2015;  1779.7656;            0   
    2016;  1780.6408;            0   
    2017;  1781.5161;            0   
    2018;  1782.3914;            0   
    2019;  1783.2667;            0   
    2020;  1784.1419;            0   
    2021;  1785.0172;            0   
    2022;  1785.8925;            0   
    2023;  1786.7678;            0   
    2024;  1787.6430;            0   
    2025;  1788.5183;            0   
    2026;  1789.3936;            0   
    2027;  1790.2689;            0   
    2028;  1791.1441;            0   
    2029;  1792.0194;            0   
    2030;  1792.8947;            0   
    2031;  1793.7700;            0   
    2032;  1794.6452;            0   
    2033;  1795.5205;            0   
    2034;  1796.3958;            0   
    2035;  1797.2711;            0   
    2036;  1798.1463;            0   
    2037;  1799.0216;            0   
    2038;  1799.8969;            0   
    2039;  1800.7722;            0   
    2040;  1801.6474;            0   
    2041;  1802.5227;            0   
    2042;  1803.3980;            0   
    2043;  1804.2733;            0   
    2044;  1805.1485;            0   
    2045;  1806.0238;            0   
    2046;  1806.8991;            0   
    2047;  1807.7744;            0   
    2048;  1808.6496;            0   
ROI Nummer; Anfangskanal; Endkanal; Anfangsenergie keV ; Endenergie keV; Nettoimpulse; Bruttoimpulse; Untergrundimpulse
In den Daten wurden keine Linien gefunden
ROI Nummer; prozentualer Fehler der Lage; Lage keV; FWHM keV; FWTM keV; FWTM/FWHM Verhltnis; H/L Verhltnis
No Peak records found in data.
Name; Energie keV; Flags; Aktivitt uCi/Unit; Aktivittsfehler %; NWG uCi/Unit; MDA Error %
Es wurden keine Nuklidergebnisse gefunden.
Name; Erwartete Endergie keV; Gemessene Energie keV; Differenz von erwarteter keV; FWHM; Flags; Aktivitt uCi/Unit; Aktivittsfehler %
Es wurden keine Nuklidergebnisse gefunden.
