Kanal;   Energie(keV); Impulse
       1;    16.9617;        83996   
       2;    17.8370;        54306   
       3;    18.7122;        35279   
       4;    19.5875;        22906   
       5;    20.4628;        15074   
       6;    21.3381;         9965   
       7;    22.2133;         6604   
       8;    23.0886;         4447   
       9;    23.9639;         3096   
      10;    24.8392;         2206   
      11;    25.7144;         1704   
      12;    26.5897;         1300   
      13;    27.4650;         1117   
      14;    28.3403;          913   
      15;    29.2155;          790   
      16;    30.0908;          727   
      17;    30.9661;          688   
      18;    31.8414;          602   
      19;    32.7166;          583   
      20;    33.5919;          573   
      21;    34.4672;          554   
      22;    35.3425;          524   
      23;    36.2177;          497   
      24;    37.0930;          455   
      25;    37.9683;          484   
      26;    38.8436;          442   
      27;    39.7188;          384   
      28;    40.5941;          395   
      29;    41.4694;          368   
      30;    42.3447;          387   
      31;    43.2199;          371   
      32;    44.0952;          344   
      33;    44.9705;          333   
      34;    45.8458;          341   
      35;    46.7210;          311   
      36;    47.5963;          301   
      37;    48.4716;          325   
      38;    49.3469;          278   
      39;    50.2221;          263   
      40;    51.0974;          277   
      41;    51.9727;          272   
      42;    52.8480;          296   
      43;    53.7232;          272   
      44;    54.5985;          280   
      45;    55.4738;          274   
      46;    56.3491;          237   
      47;    57.2243;          257   
      48;    58.0996;          211   
      49;    58.9749;          212   
      50;    59.8502;          231   
      51;    60.7254;          227   
      52;    61.6007;          214   
      53;    62.4760;          210   
      54;    63.3513;          212   
      55;    64.2265;          215   
      56;    65.1018;          223   
      57;    65.9771;          213   
      58;    66.8524;          209   
      59;    67.7276;          205   
      60;    68.6029;          191   
      61;    69.4782;          198   
      62;    70.3535;          185   
      63;    71.2287;          190   
      64;    72.1040;          209   
      65;    72.9793;          181   
      66;    73.8546;          181   
      67;    74.7298;          179   
      68;    75.6051;          187   
      69;    76.4804;          165   
      70;    77.3557;          148   
      71;    78.2309;          160   
      72;    79.1062;          163   
      73;    79.9815;          186   
      74;    80.8568;          170   
      75;    81.7320;          164   
      76;    82.6073;          167   
      77;    83.4826;          169   
      78;    84.3579;          150   
      79;    85.2331;          146   
      80;    86.1084;          145   
      81;    86.9837;          144   
      82;    87.8590;          150   
      83;    88.7342;          143   
      84;    89.6095;          158   
      85;    90.4848;          131   
      86;    91.3601;          138   
      87;    92.2353;          159   
      88;    93.1106;          127   
      89;    93.9859;          148   
      90;    94.8612;          149   
      91;    95.7364;          134   
      92;    96.6117;          127   
      93;    97.4870;          137   
      94;    98.3623;          131   
      95;    99.2375;          139   
      96;   100.1128;          140   
      97;   100.9881;          122   
      98;   101.8634;          151   
      99;   102.7386;          146   
     100;   103.6139;          116   
     101;   104.4892;          119   
     102;   105.3645;          114   
     103;   106.2397;          137   
     104;   107.1150;          131   
     105;   107.9903;          139   
     106;   108.8656;          114   
     107;   109.7408;          137   
     108;   110.6161;          133   
     109;   111.4914;          109   
     110;   112.3667;          126   
     111;   113.2419;          120   
     112;   114.1172;          103   
     113;   114.9925;          131   
     114;   115.8678;          130   
     115;   116.7430;          115   
     116;   117.6183;          128   
     117;   118.4936;          126   
     118;   119.3689;          137   
     119;   120.2441;          127   
     120;   121.1194;          103   
     121;   121.9947;          112   
     122;   122.8700;           94   
     123;   123.7452;          103   
     124;   124.6205;          100   
     125;   125.4958;          112   
     126;   126.3711;          108   
     127;   127.2463;          113   
     128;   128.1216;          118   
     129;   128.9969;          105   
     130;   129.8722;          119   
     131;   130.7474;          111   
     132;   131.6227;          113   
     133;   132.4980;          104   
     134;   133.3733;          107   
     135;   134.2485;           99   
     136;   135.1238;          108   
     137;   135.9991;          128   
     138;   136.8744;          112   
     139;   137.7496;          102   
     140;   138.6249;           94   
     141;   139.5002;          110   
     142;   140.3755;           95   
     143;   141.2507;          104   
     144;   142.1260;           92   
     145;   143.0013;          102   
     146;   143.8766;           91   
     147;   144.7518;          109   
     148;   145.6271;           94   
     149;   146.5024;           87   
     150;   147.3777;          109   
     151;   148.2529;           89   
     152;   149.1282;           99   
     153;   150.0035;          100   
     154;   150.8788;          108   
     155;   151.7540;           95   
     156;   152.6293;           98   
     157;   153.5046;           96   
     158;   154.3799;          101   
     159;   155.2551;          110   
     160;   156.1304;          102   
     161;   157.0057;          109   
     162;   157.8810;           97   
     163;   158.7562;           96   
     164;   159.6315;           94   
     165;   160.5068;          112   
     166;   161.3821;           85   
     167;   162.2573;          100   
     168;   163.1326;           86   
     169;   164.0079;          103   
     170;   164.8832;           92   
     171;   165.7584;          101   
     172;   166.6337;           95   
     173;   167.5090;           98   
     174;   168.3843;           87   
     175;   169.2595;           98   
     176;   170.1348;           97   
     177;   171.0101;           85   
     178;   171.8854;           88   
     179;   172.7606;           90   
     180;   173.6359;           92   
     181;   174.5112;           70   
     182;   175.3865;          113   
     183;   176.2617;           97   
     184;   177.1370;           81   
     185;   178.0123;           81   
     186;   178.8876;           89   
     187;   179.7628;           85   
     188;   180.6381;           95   
     189;   181.5134;           80   
     190;   182.3887;           91   
     191;   183.2639;           86   
     192;   184.1392;           89   
     193;   185.0145;           81   
     194;   185.8898;           77   
     195;   186.7650;          108   
     196;   187.6403;           90   
     197;   188.5156;           79   
     198;   189.3909;           65   
     199;   190.2661;           90   
     200;   191.1414;           79   
     201;   192.0167;           74   
     202;   192.8920;           81   
     203;   193.7672;           81   
     204;   194.6425;           72   
     205;   195.5178;           73   
     206;   196.3931;           75   
     207;   197.2683;           74   
     208;   198.1436;           62   
     209;   199.0189;           83   
     210;   199.8942;           83   
     211;   200.7694;           77   
     212;   201.6447;           71   
     213;   202.5200;           89   
     214;   203.3953;           71   
     215;   204.2705;           96   
     216;   205.1458;           70   
     217;   206.0211;           74   
     218;   206.8964;           86   
     219;   207.7716;           90   
     220;   208.6469;           59   
     221;   209.5222;           74   
     222;   210.3975;           72   
     223;   211.2727;           82   
     224;   212.1480;           66   
     225;   213.0233;           68   
     226;   213.8986;           73   
     227;   214.7738;           68   
     228;   215.6491;           64   
     229;   216.5244;           64   
     230;   217.3997;           77   
     231;   218.2749;           63   
     232;   219.1502;           69   
     233;   220.0255;           76   
     234;   220.9008;           58   
     235;   221.7760;           61   
     236;   222.6513;           67   
     237;   223.5266;           68   
     238;   224.4019;           63   
     239;   225.2771;           54   
     240;   226.1524;           45   
     241;   227.0277;           51   
     242;   227.9030;           65   
     243;   228.7782;           64   
     244;   229.6535;           63   
     245;   230.5288;           61   
     246;   231.4041;           56   
     247;   232.2793;           65   
     248;   233.1546;           54   
     249;   234.0299;           52   
     250;   234.9052;           44   
     251;   235.7804;           47   
     252;   236.6557;           58   
     253;   237.5310;           47   
     254;   238.4063;           48   
     255;   239.2815;           42   
     256;   240.1568;           44   
     257;   241.0321;           55   
     258;   241.9074;           41   
     259;   242.7826;           40   
     260;   243.6579;           46   
     261;   244.5332;           52   
     262;   245.4085;           41   
     263;   246.2837;           45   
     264;   247.1590;           44   
     265;   248.0343;           46   
     266;   248.9096;           42   
     267;   249.7848;           42   
     268;   250.6601;           47   
     269;   251.5354;           53   
     270;   252.4107;           44   
     271;   253.2859;           42   
     272;   254.1612;           57   
     273;   255.0365;           41   
     274;   255.9118;           34   
     275;   256.7870;           44   
     276;   257.6623;           38   
     277;   258.5376;           48   
     278;   259.4129;           38   
     279;   260.2881;           40   
     280;   261.1634;           42   
     281;   262.0387;           37   
     282;   262.9140;           41   
     283;   263.7892;           34   
     284;   264.6645;           32   
     285;   265.5398;           40   
     286;   266.4151;           37   
     287;   267.2903;           34   
     288;   268.1656;           43   
     289;   269.0409;           32   
     290;   269.9162;           34   
     291;   270.7914;           34   
     292;   271.6667;           33   
     293;   272.5420;           45   
     294;   273.4173;           34   
     295;   274.2925;           30   
     296;   275.1678;           32   
     297;   276.0431;           39   
     298;   276.9184;           25   
     299;   277.7936;           18   
     300;   278.6689;           34   
     301;   279.5442;           42   
     302;   280.4195;           38   
     303;   281.2947;           45   
     304;   282.1700;           33   
     305;   283.0453;           43   
     306;   283.9206;           33   
     307;   284.7958;           32   
     308;   285.6711;           33   
     309;   286.5464;           34   
     310;   287.4217;           33   
     311;   288.2969;           23   
     312;   289.1722;           27   
     313;   290.0475;           25   
     314;   290.9228;           27   
     315;   291.7980;           32   
     316;   292.6733;           33   
     317;   293.5486;           35   
     318;   294.4239;           26   
     319;   295.2991;           23   
     320;   296.1744;           27   
     321;   297.0497;           27   
     322;   297.9250;           28   
     323;   298.8002;           21   
     324;   299.6755;           25   
     325;   300.5508;           35   
     326;   301.4261;           21   
     327;   302.3013;           27   
     328;   303.1766;           29   
     329;   304.0519;           22   
     330;   304.9272;           31   
     331;   305.8024;           21   
     332;   306.6777;           27   
     333;   307.5530;           20   
     334;   308.4283;           26   
     335;   309.3035;           13   
     336;   310.1788;           26   
     337;   311.0541;           21   
     338;   311.9294;           31   
     339;   312.8046;           18   
     340;   313.6799;           25   
     341;   314.5552;           14   
     342;   315.4305;           18   
     343;   316.3057;           23   
     344;   317.1810;           15   
     345;   318.0563;           23   
     346;   318.9316;           27   
     347;   319.8068;           31   
     348;   320.6821;           23   
     349;   321.5574;           26   
     350;   322.4327;           25   
     351;   323.3079;           23   
     352;   324.1832;           17   
     353;   325.0585;           19   
     354;   325.9338;           25   
     355;   326.8090;           23   
     356;   327.6843;           22   
     357;   328.5596;           23   
     358;   329.4349;           17   
     359;   330.3101;           24   
     360;   331.1854;           17   
     361;   332.0607;           26   
     362;   332.9360;           27   
     363;   333.8112;           17   
     364;   334.6865;           23   
     365;   335.5618;           25   
     366;   336.4371;           16   
     367;   337.3123;           17   
     368;   338.1876;           28   
     369;   339.0629;           23   
     370;   339.9382;           19   
     371;   340.8134;           22   
     372;   341.6887;           20   
     373;   342.5640;           13   
     374;   343.4393;           28   
     375;   344.3145;           21   
     376;   345.1898;           12   
     377;   346.0651;           25   
     378;   346.9404;           19   
     379;   347.8156;           27   
     380;   348.6909;           23   
     381;   349.5662;           21   
     382;   350.4415;           13   
     383;   351.3167;           12   
     384;   352.1920;           17   
     385;   353.0673;           21   
     386;   353.9426;           22   
     387;   354.8178;           28   
     388;   355.6931;           22   
     389;   356.5684;           16   
     390;   357.4437;           23   
     391;   358.3189;            6   
     392;   359.1942;           16   
     393;   360.0695;           14   
     394;   360.9448;           22   
     395;   361.8200;           16   
     396;   362.6953;            8   
     397;   363.5706;           19   
     398;   364.4459;           16   
     399;   365.3211;           28   
     400;   366.1964;           21   
     401;   367.0717;           18   
     402;   367.9470;           24   
     403;   368.8222;           11   
     404;   369.6975;           18   
     405;   370.5728;           20   
     406;   371.4481;           17   
     407;   372.3233;           11   
     408;   373.1986;           20   
     409;   374.0739;           21   
     410;   374.9492;           17   
     411;   375.8244;           16   
     412;   376.6997;           15   
     413;   377.5750;           17   
     414;   378.4503;           22   
     415;   379.3255;           14   
     416;   380.2008;           17   
     417;   381.0761;           17   
     418;   381.9514;           20   
     419;   382.8266;           16   
     420;   383.7019;           18   
     421;   384.5772;           18   
     422;   385.4525;           20   
     423;   386.3277;           16   
     424;   387.2030;           23   
     425;   388.0783;           14   
     426;   388.9536;           16   
     427;   389.8288;           21   
     428;   390.7041;           21   
     429;   391.5794;           26   
     430;   392.4547;           14   
     431;   393.3299;           20   
     432;   394.2052;           23   
     433;   395.0805;           13   
     434;   395.9558;           25   
     435;   396.8310;           19   
     436;   397.7063;           17   
     437;   398.5816;           24   
     438;   399.4569;           11   
     439;   400.3321;           21   
     440;   401.2074;           21   
     441;   402.0827;           18   
     442;   402.9580;           12   
     443;   403.8332;           24   
     444;   404.7085;           17   
     445;   405.5838;           17   
     446;   406.4591;           16   
     447;   407.3343;           19   
     448;   408.2096;           23   
     449;   409.0849;           13   
     450;   409.9602;           20   
     451;   410.8354;           17   
     452;   411.7107;           24   
     453;   412.5860;           16   
     454;   413.4613;           19   
     455;   414.3365;           22   
     456;   415.2118;           11   
     457;   416.0871;           20   
     458;   416.9624;           18   
     459;   417.8376;           18   
     460;   418.7129;           17   
     461;   419.5882;           17   
     462;   420.4635;           17   
     463;   421.3387;           17   
     464;   422.2140;           17   
     465;   423.0893;           12   
     466;   423.9646;           17   
     467;   424.8398;           16   
     468;   425.7151;           23   
     469;   426.5904;           13   
     470;   427.4657;           14   
     471;   428.3409;           12   
     472;   429.2162;           21   
     473;   430.0915;           13   
     474;   430.9668;           14   
     475;   431.8420;           14   
     476;   432.7173;           17   
     477;   433.5926;           18   
     478;   434.4679;           13   
     479;   435.3431;           14   
     480;   436.2184;           17   
     481;   437.0937;           18   
     482;   437.9690;           16   
     483;   438.8442;           19   
     484;   439.7195;           22   
     485;   440.5948;           19   
     486;   441.4701;           23   
     487;   442.3453;           24   
     488;   443.2206;           30   
     489;   444.0959;           16   
     490;   444.9712;           15   
     491;   445.8464;           20   
     492;   446.7217;           11   
     493;   447.5970;           20   
     494;   448.4723;           15   
     495;   449.3475;           16   
     496;   450.2228;           18   
     497;   451.0981;           14   
     498;   451.9734;           17   
     499;   452.8486;           20   
     500;   453.7239;           16   
     501;   454.5992;           14   
     502;   455.4745;            9   
     503;   456.3497;           14   
     504;   457.2250;           18   
     505;   458.1003;           19   
     506;   458.9756;           20   
     507;   459.8508;           10   
     508;   460.7261;           16   
     509;   461.6014;           21   
     510;   462.4767;           13   
     511;   463.3519;           21   
     512;   464.2272;           17   
     513;   465.1025;           17   
     514;   465.9778;           16   
     515;   466.8530;           16   
     516;   467.7283;           26   
     517;   468.6036;           17   
     518;   469.4789;           15   
     519;   470.3541;           10   
     520;   471.2294;           13   
     521;   472.1047;           13   
     522;   472.9800;           22   
     523;   473.8552;           21   
     524;   474.7305;           18   
     525;   475.6058;           16   
     526;   476.4811;           17   
     527;   477.3563;            9   
     528;   478.2316;           15   
     529;   479.1069;           17   
     530;   479.9822;           14   
     531;   480.8574;           17   
     532;   481.7327;           11   
     533;   482.6080;           18   
     534;   483.4833;           15   
     535;   484.3585;           19   
     536;   485.2338;           10   
     537;   486.1091;           13   
     538;   486.9844;           16   
     539;   487.8596;           20   
     540;   488.7349;           15   
     541;   489.6102;           16   
     542;   490.4855;           15   
     543;   491.3607;           14   
     544;   492.2360;           16   
     545;   493.1113;           24   
     546;   493.9866;           12   
     547;   494.8618;           18   
     548;   495.7371;           15   
     549;   496.6124;            8   
     550;   497.4877;           13   
     551;   498.3629;           20   
     552;   499.2382;           16   
     553;   500.1135;            9   
     554;   500.9888;           16   
     555;   501.8640;           10   
     556;   502.7393;           16   
     557;   503.6146;           13   
     558;   504.4899;           22   
     559;   505.3651;           18   
     560;   506.2404;           21   
     561;   507.1157;           12   
     562;   507.9910;           18   
     563;   508.8662;           11   
     564;   509.7415;           14   
     565;   510.6168;           12   
     566;   511.4921;           16   
     567;   512.3673;           23   
     568;   513.2426;           26   
     569;   514.1179;           13   
     570;   514.9932;           16   
     571;   515.8684;           13   
     572;   516.7437;           14   
     573;   517.6190;           20   
     574;   518.4943;           17   
     575;   519.3695;           14   
     576;   520.2448;           12   
     577;   521.1201;            8   
     578;   521.9954;           19   
     579;   522.8706;            7   
     580;   523.7459;           13   
     581;   524.6212;           18   
     582;   525.4965;           12   
     583;   526.3717;            8   
     584;   527.2470;           18   
     585;   528.1223;           12   
     586;   528.9976;           14   
     587;   529.8728;           19   
     588;   530.7481;           18   
     589;   531.6234;           21   
     590;   532.4987;           14   
     591;   533.3739;           15   
     592;   534.2492;           20   
     593;   535.1245;           11   
     594;   535.9998;           20   
     595;   536.8750;           18   
     596;   537.7503;           12   
     597;   538.6256;           15   
     598;   539.5009;           19   
     599;   540.3761;           11   
     600;   541.2514;           10   
     601;   542.1267;           10   
     602;   543.0020;           12   
     603;   543.8772;           18   
     604;   544.7525;           13   
     605;   545.6278;           13   
     606;   546.5031;           15   
     607;   547.3783;           13   
     608;   548.2536;           15   
     609;   549.1289;           16   
     610;   550.0042;           19   
     611;   550.8794;           13   
     612;   551.7547;           17   
     613;   552.6300;           18   
     614;   553.5053;           12   
     615;   554.3805;           11   
     616;   555.2558;           17   
     617;   556.1311;           12   
     618;   557.0064;            9   
     619;   557.8816;            7   
     620;   558.7569;           14   
     621;   559.6322;           18   
     622;   560.5075;            5   
     623;   561.3827;            7   
     624;   562.2580;           13   
     625;   563.1333;           16   
     626;   564.0086;            9   
     627;   564.8838;           17   
     628;   565.7591;           11   
     629;   566.6344;           12   
     630;   567.5097;           12   
     631;   568.3849;           16   
     632;   569.2602;           13   
     633;   570.1355;           20   
     634;   571.0108;            6   
     635;   571.8860;           13   
     636;   572.7613;           13   
     637;   573.6366;           11   
     638;   574.5119;           10   
     639;   575.3871;           15   
     640;   576.2624;           21   
     641;   577.1377;           14   
     642;   578.0130;           18   
     643;   578.8882;           16   
     644;   579.7635;           17   
     645;   580.6388;           12   
     646;   581.5141;           11   
     647;   582.3893;           13   
     648;   583.2646;           16   
     649;   584.1399;           11   
     650;   585.0152;           18   
     651;   585.8904;           15   
     652;   586.7657;           16   
     653;   587.6410;            8   
     654;   588.5163;            9   
     655;   589.3915;           16   
     656;   590.2668;           12   
     657;   591.1421;           23   
     658;   592.0174;           16   
     659;   592.8926;            9   
     660;   593.7679;            9   
     661;   594.6432;           15   
     662;   595.5185;           16   
     663;   596.3937;            7   
     664;   597.2690;            6   
     665;   598.1443;           14   
     666;   599.0196;           13   
     667;   599.8948;           10   
     668;   600.7701;           16   
     669;   601.6454;           18   
     670;   602.5207;           17   
     671;   603.3959;           15   
     672;   604.2712;           12   
     673;   605.1465;            4   
     674;   606.0218;           15   
     675;   606.8970;           19   
     676;   607.7723;           12   
     677;   608.6476;           16   
     678;   609.5229;           18   
     679;   610.3981;           11   
     680;   611.2734;           12   
     681;   612.1487;           10   
     682;   613.0240;           10   
     683;   613.8992;            9   
     684;   614.7745;           14   
     685;   615.6498;           11   
     686;   616.5251;           17   
     687;   617.4003;            9   
     688;   618.2756;           13   
     689;   619.1509;           13   
     690;   620.0262;            9   
     691;   620.9014;            9   
     692;   621.7767;           11   
     693;   622.6520;           13   
     694;   623.5273;           17   
     695;   624.4025;           11   
     696;   625.2778;           13   
     697;   626.1531;           13   
     698;   627.0284;           14   
     699;   627.9036;           13   
     700;   628.7789;            8   
     701;   629.6542;           16   
     702;   630.5295;           11   
     703;   631.4047;           14   
     704;   632.2800;           24   
     705;   633.1553;           13   
     706;   634.0306;           18   
     707;   634.9058;           15   
     708;   635.7811;           13   
     709;   636.6564;           12   
     710;   637.5317;           11   
     711;   638.4069;           11   
     712;   639.2822;           17   
     713;   640.1575;           10   
     714;   641.0328;           11   
     715;   641.9080;            7   
     716;   642.7833;           10   
     717;   643.6586;           12   
     718;   644.5339;           10   
     719;   645.4091;           12   
     720;   646.2844;           18   
     721;   647.1597;           11   
     722;   648.0350;            9   
     723;   648.9102;           17   
     724;   649.7855;           11   
     725;   650.6608;           10   
     726;   651.5361;            8   
     727;   652.4113;           13   
     728;   653.2866;           15   
     729;   654.1619;            8   
     730;   655.0372;           10   
     731;   655.9124;           18   
     732;   656.7877;           10   
     733;   657.6630;           10   
     734;   658.5383;           14   
     735;   659.4135;           18   
     736;   660.2888;           14   
     737;   661.1641;           11   
     738;   662.0394;           16   
     739;   662.9146;           11   
     740;   663.7899;           11   
     741;   664.6652;            9   
     742;   665.5405;           13   
     743;   666.4157;           10   
     744;   667.2910;           18   
     745;   668.1663;           18   
     746;   669.0416;           11   
     747;   669.9168;           11   
     748;   670.7921;           16   
     749;   671.6674;           11   
     750;   672.5427;           10   
     751;   673.4179;           14   
     752;   674.2932;           11   
     753;   675.1685;           10   
     754;   676.0438;            8   
     755;   676.9190;            8   
     756;   677.7943;            9   
     757;   678.6696;            9   
     758;   679.5449;           12   
     759;   680.4201;            9   
     760;   681.2954;           11   
     761;   682.1707;           16   
     762;   683.0460;            8   
     763;   683.9212;           15   
     764;   684.7965;            9   
     765;   685.6718;            7   
     766;   686.5471;            7   
     767;   687.4223;            6   
     768;   688.2976;           14   
     769;   689.1729;           11   
     770;   690.0482;           12   
     771;   690.9234;            8   
     772;   691.7987;            9   
     773;   692.6740;            7   
     774;   693.5493;            7   
     775;   694.4245;            7   
     776;   695.2998;           12   
     777;   696.1751;            6   
     778;   697.0504;           14   
     779;   697.9256;           11   
     780;   698.8009;            7   
     781;   699.6762;           15   
     782;   700.5515;            7   
     783;   701.4267;           18   
     784;   702.3020;           12   
     785;   703.1773;            9   
     786;   704.0526;           10   
     787;   704.9278;            9   
     788;   705.8031;            8   
     789;   706.6784;           10   
     790;   707.5537;            3   
     791;   708.4289;            7   
     792;   709.3042;            9   
     793;   710.1795;           12   
     794;   711.0548;           14   
     795;   711.9300;           14   
     796;   712.8053;            6   
     797;   713.6806;           18   
     798;   714.5559;            4   
     799;   715.4311;           13   
     800;   716.3064;           12   
     801;   717.1817;            7   
     802;   718.0570;            7   
     803;   718.9322;            9   
     804;   719.8075;           13   
     805;   720.6828;           10   
     806;   721.5581;           11   
     807;   722.4333;            9   
     808;   723.3086;           13   
     809;   724.1839;           12   
     810;   725.0592;           13   
     811;   725.9344;            5   
     812;   726.8097;            4   
     813;   727.6850;            5   
     814;   728.5603;            9   
     815;   729.4355;            5   
     816;   730.3108;            5   
     817;   731.1861;            9   
     818;   732.0614;           10   
     819;   732.9366;           11   
     820;   733.8119;            8   
     821;   734.6872;            8   
     822;   735.5625;           15   
     823;   736.4377;           10   
     824;   737.3130;            6   
     825;   738.1883;            4   
     826;   739.0636;            9   
     827;   739.9388;            7   
     828;   740.8141;           15   
     829;   741.6894;            4   
     830;   742.5647;            8   
     831;   743.4399;           12   
     832;   744.3152;            5   
     833;   745.1905;           10   
     834;   746.0658;            8   
     835;   746.9410;            7   
     836;   747.8163;            7   
     837;   748.6916;            9   
     838;   749.5669;            6   
     839;   750.4421;            4   
     840;   751.3174;            7   
     841;   752.1927;            9   
     842;   753.0680;            8   
     843;   753.9432;            7   
     844;   754.8185;            5   
     845;   755.6938;            9   
     846;   756.5691;            4   
     847;   757.4443;            5   
     848;   758.3196;            8   
     849;   759.1949;            5   
     850;   760.0702;           11   
     851;   760.9454;            6   
     852;   761.8207;           10   
     853;   762.6960;            5   
     854;   763.5713;            9   
     855;   764.4465;            4   
     856;   765.3218;           13   
     857;   766.1971;            6   
     858;   767.0724;            6   
     859;   767.9476;            7   
     860;   768.8229;            8   
     861;   769.6982;            9   
     862;   770.5735;            2   
     863;   771.4487;            8   
     864;   772.3240;            5   
     865;   773.1993;            7   
     866;   774.0746;            9   
     867;   774.9498;            4   
     868;   775.8251;            6   
     869;   776.7004;            4   
     870;   777.5757;            2   
     871;   778.4509;            6   
     872;   779.3262;            1   
     873;   780.2015;            6   
     874;   781.0768;            4   
     875;   781.9520;           10   
     876;   782.8273;            7   
     877;   783.7026;            9   
     878;   784.5779;            8   
     879;   785.4531;            7   
     880;   786.3284;            6   
     881;   787.2037;            5   
     882;   788.0790;           10   
     883;   788.9542;            9   
     884;   789.8295;           10   
     885;   790.7048;            3   
     886;   791.5801;            6   
     887;   792.4553;            2   
     888;   793.3306;            7   
     889;   794.2059;            7   
     890;   795.0812;           11   
     891;   795.9564;            5   
     892;   796.8317;            4   
     893;   797.7070;            4   
     894;   798.5823;            5   
     895;   799.4575;            8   
     896;   800.3328;            5   
     897;   801.2081;            7   
     898;   802.0834;            6   
     899;   802.9586;            2   
     900;   803.8339;            0   
     901;   804.7092;            4   
     902;   805.5845;            4   
     903;   806.4597;            4   
     904;   807.3350;            6   
     905;   808.2103;            4   
     906;   809.0856;            6   
     907;   809.9608;            6   
     908;   810.8361;            5   
     909;   811.7114;            8   
     910;   812.5867;           10   
     911;   813.4619;            4   
     912;   814.3372;            7   
     913;   815.2125;            5   
     914;   816.0878;           10   
     915;   816.9631;            1   
     916;   817.8383;            8   
     917;   818.7136;            2   
     918;   819.5889;            5   
     919;   820.4642;            5   
     920;   821.3394;           10   
     921;   822.2147;            3   
     922;   823.0900;            6   
     923;   823.9653;            4   
     924;   824.8405;            3   
     925;   825.7158;            4   
     926;   826.5911;            4   
     927;   827.4664;            4   
     928;   828.3416;            3   
     929;   829.2169;            3   
     930;   830.0922;            3   
     931;   830.9675;            5   
     932;   831.8427;            6   
     933;   832.7180;            3   
     934;   833.5933;            3   
     935;   834.4686;            7   
     936;   835.3438;            2   
     937;   836.2191;            6   
     938;   837.0944;            5   
     939;   837.9697;            8   
     940;   838.8449;            2   
     941;   839.7202;            4   
     942;   840.5955;            7   
     943;   841.4708;            6   
     944;   842.3460;            6   
     945;   843.2213;            7   
     946;   844.0966;            4   
     947;   844.9719;            8   
     948;   845.8471;            3   
     949;   846.7224;            4   
     950;   847.5977;            6   
     951;   848.4730;            3   
     952;   849.3482;            1   
     953;   850.2235;            5   
     954;   851.0988;            3   
     955;   851.9741;            2   
     956;   852.8493;            6   
     957;   853.7246;            7   
     958;   854.5999;            0   
     959;   855.4752;            2   
     960;   856.3504;            7   
     961;   857.2257;            0   
     962;   858.1010;            5   
     963;   858.9763;            2   
     964;   859.8515;            5   
     965;   860.7268;            2   
     966;   861.6021;            5   
     967;   862.4774;            5   
     968;   863.3526;            7   
     969;   864.2279;            2   
     970;   865.1032;            3   
     971;   865.9785;            3   
     972;   866.8537;            4   
     973;   867.7290;            3   
     974;   868.6043;            3   
     975;   869.4796;            1   
     976;   870.3548;            0   
     977;   871.2301;            5   
     978;   872.1054;            3   
     979;   872.9807;            4   
     980;   873.8559;            3   
     981;   874.7312;            1   
     982;   875.6065;            3   
     983;   876.4818;            2   
     984;   877.3570;            3   
     985;   878.2323;            4   
     986;   879.1076;            3   
     987;   879.9829;            0   
     988;   880.8581;            1   
     989;   881.7334;            2   
     990;   882.6087;            5   
     991;   883.4840;            2   
     992;   884.3592;            5   
     993;   885.2345;            1   
     994;   886.1098;            0   
     995;   886.9851;            5   
     996;   887.8603;            8   
     997;   888.7356;            2   
     998;   889.6109;            2   
     999;   890.4862;            3   
    1000;   891.3614;            6   
    1001;   892.2367;            1   
    1002;   893.1120;            4   
    1003;   893.9873;            2   
    1004;   894.8625;            6   
    1005;   895.7378;            3   
    1006;   896.6131;            3   
    1007;   897.4884;            5   
    1008;   898.3636;            2   
    1009;   899.2389;            3   
    1010;   900.1142;            4   
    1011;   900.9895;            2   
    1012;   901.8647;            5   
    1013;   902.7400;            4   
    1014;   903.6153;            4   
    1015;   904.4906;            6   
    1016;   905.3658;            0   
    1017;   906.2411;            2   
    1018;   907.1164;            0   
    1019;   907.9917;            4   
    1020;   908.8669;            3   
    1021;   909.7422;            1   
    1022;   910.6175;            1   
    1023;   911.4928;            0   
    1024;   912.3680;            0   
    1025;   913.2433;            1   
    1026;   914.1186;            3   
    1027;   914.9939;            4   
    1028;   915.8691;            2   
    1029;   916.7444;            2   
    1030;   917.6197;            3   
    1031;   918.4950;            1   
    1032;   919.3702;            2   
    1033;   920.2455;            3   
    1034;   921.1208;            2   
    1035;   921.9961;            4   
    1036;   922.8713;            2   
    1037;   923.7466;            2   
    1038;   924.6219;            3   
    1039;   925.4972;            1   
    1040;   926.3724;            4   
    1041;   927.2477;            6   
    1042;   928.1230;            2   
    1043;   928.9983;            4   
    1044;   929.8735;            4   
    1045;   930.7488;            1   
    1046;   931.6241;            2   
    1047;   932.4994;            1   
    1048;   933.3746;            4   
    1049;   934.2499;            1   
    1050;   935.1252;            1   
    1051;   936.0005;            0   
    1052;   936.8757;            5   
    1053;   937.7510;            1   
    1054;   938.6263;            1   
    1055;   939.5016;            2   
    1056;   940.3768;            6   
    1057;   941.2521;            3   
    1058;   942.1274;            1   
    1059;   943.0027;            0   
    1060;   943.8779;            3   
    1061;   944.7532;            1   
    1062;   945.6285;            2   
    1063;   946.5038;            0   
    1064;   947.3790;            1   
    1065;   948.2543;            1   
    1066;   949.1296;            1   
    1067;   950.0049;            1   
    1068;   950.8801;            7   
    1069;   951.7554;            2   
    1070;   952.6307;            0   
    1071;   953.5060;            2   
    1072;   954.3812;            0   
    1073;   955.2565;            2   
    1074;   956.1318;            0   
    1075;   957.0071;            2   
    1076;   957.8823;            2   
    1077;   958.7576;            2   
    1078;   959.6329;            0   
    1079;   960.5082;            2   
    1080;   961.3834;            3   
    1081;   962.2587;            1   
    1082;   963.1340;            1   
    1083;   964.0093;            2   
    1084;   964.8845;            3   
    1085;   965.7598;            3   
    1086;   966.6351;            1   
    1087;   967.5104;            2   
    1088;   968.3856;            1   
    1089;   969.2609;            5   
    1090;   970.1362;            2   
    1091;   971.0115;            2   
    1092;   971.8867;            1   
    1093;   972.7620;            1   
    1094;   973.6373;            2   
    1095;   974.5126;            0   
    1096;   975.3878;            2   
    1097;   976.2631;            1   
    1098;   977.1384;            0   
    1099;   978.0137;            2   
    1100;   978.8889;            3   
    1101;   979.7642;            3   
    1102;   980.6395;            3   
    1103;   981.5148;            0   
    1104;   982.3900;            0   
    1105;   983.2653;            0   
    1106;   984.1406;            0   
    1107;   985.0159;            0   
    1108;   985.8911;            0   
    1109;   986.7664;            2   
    1110;   987.6417;            0   
    1111;   988.5170;            1   
    1112;   989.3922;            3   
    1113;   990.2675;            0   
    1114;   991.1428;            3   
    1115;   992.0181;            0   
    1116;   992.8933;            3   
    1117;   993.7686;            0   
    1118;   994.6439;            1   
    1119;   995.5192;            4   
    1120;   996.3944;            2   
    1121;   997.2697;            0   
    1122;   998.1450;            0   
    1123;   999.0203;            3   
    1124;   999.8955;            2   
    1125;  1000.7708;            0   
    1126;  1001.6461;            2   
    1127;  1002.5214;            0   
    1128;  1003.3966;            1   
    1129;  1004.2719;            1   
    1130;  1005.1472;            1   
    1131;  1006.0225;            2   
    1132;  1006.8977;            2   
    1133;  1007.7730;            1   
    1134;  1008.6483;            2   
    1135;  1009.5236;            1   
    1136;  1010.3988;            1   
    1137;  1011.2741;            2   
    1138;  1012.1494;            0   
    1139;  1013.0247;            3   
    1140;  1013.8999;            1   
    1141;  1014.7752;            1   
    1142;  1015.6505;            0   
    1143;  1016.5258;            0   
    1144;  1017.4010;            0   
    1145;  1018.2763;            1   
    1146;  1019.1516;            0   
    1147;  1020.0269;            1   
    1148;  1020.9021;            1   
    1149;  1021.7774;            0   
    1150;  1022.6527;            2   
    1151;  1023.5280;            1   
    1152;  1024.4032;            2   
    1153;  1025.2785;            3   
    1154;  1026.1538;            0   
    1155;  1027.0291;            1   
    1156;  1027.9043;            1   
    1157;  1028.7796;            3   
    1158;  1029.6549;            1   
    1159;  1030.5302;            1   
    1160;  1031.4054;            0   
    1161;  1032.2807;            1   
    1162;  1033.1560;            1   
    1163;  1034.0313;            1   
    1164;  1034.9065;            0   
    1165;  1035.7818;            1   
    1166;  1036.6571;            1   
    1167;  1037.5324;            2   
    1168;  1038.4076;            2   
    1169;  1039.2829;            0   
    1170;  1040.1582;            0   
    1171;  1041.0335;            3   
    1172;  1041.9087;            0   
    1173;  1042.7840;            1   
    1174;  1043.6593;            1   
    1175;  1044.5346;            0   
    1176;  1045.4098;            0   
    1177;  1046.2851;            1   
    1178;  1047.1604;            2   
    1179;  1048.0357;            0   
    1180;  1048.9109;            0   
    1181;  1049.7862;            0   
    1182;  1050.6615;            1   
    1183;  1051.5368;            0   
    1184;  1052.4120;            0   
    1185;  1053.2873;            2   
    1186;  1054.1626;            2   
    1187;  1055.0379;            2   
    1188;  1055.9131;            2   
    1189;  1056.7884;            2   
    1190;  1057.6637;            0   
    1191;  1058.5390;            0   
    1192;  1059.4142;            1   
    1193;  1060.2895;            0   
    1194;  1061.1648;            0   
    1195;  1062.0401;            0   
    1196;  1062.9153;            1   
    1197;  1063.7906;            1   
    1198;  1064.6659;            1   
    1199;  1065.5412;            1   
    1200;  1066.4164;            0   
    1201;  1067.2917;            0   
    1202;  1068.1670;            0   
    1203;  1069.0423;            2   
    1204;  1069.9175;            2   
    1205;  1070.7928;            2   
    1206;  1071.6681;            1   
    1207;  1072.5434;            0   
    1208;  1073.4186;            0   
    1209;  1074.2939;            2   
    1210;  1075.1692;            0   
    1211;  1076.0445;            1   
    1212;  1076.9197;            0   
    1213;  1077.7950;            2   
    1214;  1078.6703;            1   
    1215;  1079.5456;            1   
    1216;  1080.4208;            1   
    1217;  1081.2961;            1   
    1218;  1082.1714;            0   
    1219;  1083.0467;            1   
    1220;  1083.9219;            1   
    1221;  1084.7972;            1   
    1222;  1085.6725;            2   
    1223;  1086.5478;            1   
    1224;  1087.4230;            1   
    1225;  1088.2983;            0   
    1226;  1089.1736;            1   
    1227;  1090.0489;            0   
    1228;  1090.9241;            2   
    1229;  1091.7994;            0   
    1230;  1092.6747;            0   
    1231;  1093.5500;            1   
    1232;  1094.4252;            1   
    1233;  1095.3005;            1   
    1234;  1096.1758;            0   
    1235;  1097.0511;            1   
    1236;  1097.9263;            0   
    1237;  1098.8016;            2   
    1238;  1099.6769;            0   
    1239;  1100.5522;            0   
    1240;  1101.4274;            0   
    1241;  1102.3027;            0   
    1242;  1103.1780;            0   
    1243;  1104.0533;            0   
    1244;  1104.9285;            0   
    1245;  1105.8038;            0   
    1246;  1106.6791;            0   
    1247;  1107.5544;            1   
    1248;  1108.4296;            0   
    1249;  1109.3049;            1   
    1250;  1110.1802;            0   
    1251;  1111.0555;            0   
    1252;  1111.9307;            1   
    1253;  1112.8060;            0   
    1254;  1113.6813;            0   
    1255;  1114.5566;            2   
    1256;  1115.4318;            0   
    1257;  1116.3071;            0   
    1258;  1117.1824;            0   
    1259;  1118.0577;            0   
    1260;  1118.9329;            0   
    1261;  1119.8082;            0   
    1262;  1120.6835;            1   
    1263;  1121.5588;            1   
    1264;  1122.4340;            1   
    1265;  1123.3093;            0   
    1266;  1124.1846;            1   
    1267;  1125.0599;            2   
    1268;  1125.9351;            0   
    1269;  1126.8104;            0   
    1270;  1127.6857;            0   
    1271;  1128.5610;            1   
    1272;  1129.4362;            0   
    1273;  1130.3115;            1   
    1274;  1131.1868;            0   
    1275;  1132.0621;            0   
    1276;  1132.9373;            0   
    1277;  1133.8126;            2   
    1278;  1134.6879;            0   
    1279;  1135.5632;            2   
    1280;  1136.4384;            0   
    1281;  1137.3137;            0   
    1282;  1138.1890;            0   
    1283;  1139.0643;            1   
    1284;  1139.9395;            0   
    1285;  1140.8148;            0   
    1286;  1141.6901;            0   
    1287;  1142.5654;            1   
    1288;  1143.4406;            0   
    1289;  1144.3159;            0   
    1290;  1145.1912;            2   
    1291;  1146.0665;            2   
    1292;  1146.9417;            0   
    1293;  1147.8170;            0   
    1294;  1148.6923;            0   
    1295;  1149.5676;            2   
    1296;  1150.4428;            0   
    1297;  1151.3181;            0   
    1298;  1152.1934;            0   
    1299;  1153.0687;            0   
    1300;  1153.9439;            0   
    1301;  1154.8192;            1   
    1302;  1155.6945;            1   
    1303;  1156.5698;            0   
    1304;  1157.4450;            0   
    1305;  1158.3203;            0   
    1306;  1159.1956;            0   
    1307;  1160.0709;            1   
    1308;  1160.9461;            0   
    1309;  1161.8214;            1   
    1310;  1162.6967;            0   
    1311;  1163.5720;            1   
    1312;  1164.4472;            0   
    1313;  1165.3225;            0   
    1314;  1166.1978;            1   
    1315;  1167.0731;            2   
    1316;  1167.9483;            0   
    1317;  1168.8236;            0   
    1318;  1169.6989;            0   
    1319;  1170.5742;            0   
    1320;  1171.4494;            0   
    1321;  1172.3247;            1   
    1322;  1173.2000;            0   
    1323;  1174.0753;            0   
    1324;  1174.9505;            0   
    1325;  1175.8258;            0   
    1326;  1176.7011;            0   
    1327;  1177.5764;            1   
    1328;  1178.4516;            0   
    1329;  1179.3269;            1   
    1330;  1180.2022;            0   
    1331;  1181.0775;            0   
    1332;  1181.9527;            0   
    1333;  1182.8280;            0   
    1334;  1183.7033;            0   
    1335;  1184.5786;            1   
    1336;  1185.4538;            0   
    1337;  1186.3291;            0   
    1338;  1187.2044;            0   
    1339;  1188.0797;            1   
    1340;  1188.9549;            1   
    1341;  1189.8302;            0   
    1342;  1190.7055;            0   
    1343;  1191.5808;            2   
    1344;  1192.4560;            2   
    1345;  1193.3313;            1   
    1346;  1194.2066;            0   
    1347;  1195.0819;            0   
    1348;  1195.9571;            0   
    1349;  1196.8324;            0   
    1350;  1197.7077;            1   
    1351;  1198.5830;            0   
    1352;  1199.4582;            0   
    1353;  1200.3335;            0   
    1354;  1201.2088;            0   
    1355;  1202.0841;            1   
    1356;  1202.9593;            1   
    1357;  1203.8346;            0   
    1358;  1204.7099;            1   
    1359;  1205.5852;            2   
    1360;  1206.4604;            0   
    1361;  1207.3357;            0   
    1362;  1208.2110;            2   
    1363;  1209.0863;            0   
    1364;  1209.9615;            0   
    1365;  1210.8368;            1   
    1366;  1211.7121;            0   
    1367;  1212.5874;            0   
    1368;  1213.4626;            0   
    1369;  1214.3379;            1   
    1370;  1215.2132;            1   
    1371;  1216.0885;            0   
    1372;  1216.9637;            1   
    1373;  1217.8390;            0   
    1374;  1218.7143;            0   
    1375;  1219.5896;            0   
    1376;  1220.4648;            0   
    1377;  1221.3401;            0   
    1378;  1222.2154;            0   
    1379;  1223.0907;            1   
    1380;  1223.9659;            1   
    1381;  1224.8412;            0   
    1382;  1225.7165;            1   
    1383;  1226.5918;            1   
    1384;  1227.4670;            0   
    1385;  1228.3423;            0   
    1386;  1229.2176;            1   
    1387;  1230.0929;            2   
    1388;  1230.9681;            0   
    1389;  1231.8434;            1   
    1390;  1232.7187;            0   
    1391;  1233.5940;            2   
    1392;  1234.4692;            0   
    1393;  1235.3445;            0   
    1394;  1236.2198;            1   
    1395;  1237.0951;            0   
    1396;  1237.9703;            0   
    1397;  1238.8456;            0   
    1398;  1239.7209;            0   
    1399;  1240.5962;            0   
    1400;  1241.4714;            1   
    1401;  1242.3467;            0   
    1402;  1243.2220;            1   
    1403;  1244.0973;            0   
    1404;  1244.9725;            1   
    1405;  1245.8478;            0   
    1406;  1246.7231;            0   
    1407;  1247.5984;            1   
    1408;  1248.4736;            1   
    1409;  1249.3489;            1   
    1410;  1250.2242;            1   
    1411;  1251.0995;            1   
    1412;  1251.9747;            1   
    1413;  1252.8500;            0   
    1414;  1253.7253;            0   
    1415;  1254.6006;            3   
    1416;  1255.4758;            0   
    1417;  1256.3511;            1   
    1418;  1257.2264;            0   
    1419;  1258.1017;            1   
    1420;  1258.9769;            0   
    1421;  1259.8522;            1   
    1422;  1260.7275;            0   
    1423;  1261.6028;            0   
    1424;  1262.4780;            0   
    1425;  1263.3533;            0   
    1426;  1264.2286;            1   
    1427;  1265.1039;            0   
    1428;  1265.9791;            1   
    1429;  1266.8544;            0   
    1430;  1267.7297;            0   
    1431;  1268.6050;            1   
    1432;  1269.4802;            1   
    1433;  1270.3555;            2   
    1434;  1271.2308;            0   
    1435;  1272.1061;            0   
    1436;  1272.9813;            0   
    1437;  1273.8566;            0   
    1438;  1274.7319;            1   
    1439;  1275.6072;            0   
    1440;  1276.4824;            1   
    1441;  1277.3577;            1   
    1442;  1278.2330;            1   
    1443;  1279.1083;            0   
    1444;  1279.9835;            0   
    1445;  1280.8588;            0   
    1446;  1281.7341;            0   
    1447;  1282.6094;            1   
    1448;  1283.4846;            0   
    1449;  1284.3599;            1   
    1450;  1285.2352;            0   
    1451;  1286.1105;            0   
    1452;  1286.9857;            1   
    1453;  1287.8610;            1   
    1454;  1288.7363;            1   
    1455;  1289.6116;            0   
    1456;  1290.4868;            0   
    1457;  1291.3621;            0   
    1458;  1292.2374;            0   
    1459;  1293.1127;            1   
    1460;  1293.9879;            1   
    1461;  1294.8632;            0   
    1462;  1295.7385;            2   
    1463;  1296.6138;            1   
    1464;  1297.4890;            1   
    1465;  1298.3643;            0   
    1466;  1299.2396;            1   
    1467;  1300.1149;            0   
    1468;  1300.9901;            0   
    1469;  1301.8654;            0   
    1470;  1302.7407;            0   
    1471;  1303.6160;            0   
    1472;  1304.4912;            0   
    1473;  1305.3665;            1   
    1474;  1306.2418;            0   
    1475;  1307.1171;            0   
    1476;  1307.9923;            0   
    1477;  1308.8676;            0   
    1478;  1309.7429;            1   
    1479;  1310.6182;            0   
    1480;  1311.4934;            0   
    1481;  1312.3687;            1   
    1482;  1313.2440;            1   
    1483;  1314.1193;            0   
    1484;  1314.9945;            0   
    1485;  1315.8698;            0   
    1486;  1316.7451;            0   
    1487;  1317.6204;            0   
    1488;  1318.4956;            0   
    1489;  1319.3709;            0   
    1490;  1320.2462;            0   
    1491;  1321.1215;            0   
    1492;  1321.9967;            0   
    1493;  1322.8720;            0   
    1494;  1323.7473;            1   
    1495;  1324.6226;            1   
    1496;  1325.4978;            0   
    1497;  1326.3731;            0   
    1498;  1327.2484;            0   
    1499;  1328.1237;            0   
    1500;  1328.9989;            0   
    1501;  1329.8742;            0   
    1502;  1330.7495;            0   
    1503;  1331.6248;            1   
    1504;  1332.5000;            0   
    1505;  1333.3753;            0   
    1506;  1334.2506;            0   
    1507;  1335.1259;            1   
    1508;  1336.0011;            0   
    1509;  1336.8764;            1   
    1510;  1337.7517;            0   
    1511;  1338.6270;            0   
    1512;  1339.5022;            0   
    1513;  1340.3775;            2   
    1514;  1341.2528;            0   
    1515;  1342.1281;            0   
    1516;  1343.0033;            0   
    1517;  1343.8786;            0   
    1518;  1344.7539;            0   
    1519;  1345.6292;            1   
    1520;  1346.5044;            0   
    1521;  1347.3797;            1   
    1522;  1348.2550;            0   
    1523;  1349.1303;            1   
    1524;  1350.0055;            0   
    1525;  1350.8808;            0   
    1526;  1351.7561;            0   
    1527;  1352.6314;            0   
    1528;  1353.5066;            0   
    1529;  1354.3819;            0   
    1530;  1355.2572;            0   
    1531;  1356.1325;            1   
    1532;  1357.0077;            1   
    1533;  1357.8830;            0   
    1534;  1358.7583;            1   
    1535;  1359.6336;            1   
    1536;  1360.5088;            0   
    1537;  1361.3841;            0   
    1538;  1362.2594;            0   
    1539;  1363.1347;            1   
    1540;  1364.0099;            0   
    1541;  1364.8852;            1   
    1542;  1365.7605;            1   
    1543;  1366.6358;            0   
    1544;  1367.5110;            0   
    1545;  1368.3863;            0   
    1546;  1369.2616;            0   
    1547;  1370.1369;            0   
    1548;  1371.0121;            0   
    1549;  1371.8874;            0   
    1550;  1372.7627;            0   
    1551;  1373.6380;            1   
    1552;  1374.5132;            1   
    1553;  1375.3885;            1   
    1554;  1376.2638;            0   
    1555;  1377.1391;            0   
    1556;  1378.0143;            0   
    1557;  1378.8896;            0   
    1558;  1379.7649;            0   
    1559;  1380.6402;            0   
    1560;  1381.5154;            0   
    1561;  1382.3907;            0   
    1562;  1383.2660;            0   
    1563;  1384.1413;            1   
    1564;  1385.0165;            0   
    1565;  1385.8918;            0   
    1566;  1386.7671;            0   
    1567;  1387.6424;            0   
    1568;  1388.5176;            1   
    1569;  1389.3929;            1   
    1570;  1390.2682;            2   
    1571;  1391.1435;            0   
    1572;  1392.0187;            0   
    1573;  1392.8940;            0   
    1574;  1393.7693;            0   
    1575;  1394.6446;            1   
    1576;  1395.5198;            0   
    1577;  1396.3951;            1   
    1578;  1397.2704;            0   
    1579;  1398.1457;            1   
    1580;  1399.0209;            0   
    1581;  1399.8962;            1   
    1582;  1400.7715;            1   
    1583;  1401.6468;            0   
    1584;  1402.5220;            0   
    1585;  1403.3973;            0   
    1586;  1404.2726;            0   
    1587;  1405.1479;            0   
    1588;  1406.0231;            0   
    1589;  1406.8984;            3   
    1590;  1407.7737;            0   
    1591;  1408.6490;            0   
    1592;  1409.5242;            0   
    1593;  1410.3995;            1   
    1594;  1411.2748;            0   
    1595;  1412.1501;            0   
    1596;  1413.0253;            0   
    1597;  1413.9006;            0   
    1598;  1414.7759;            0   
    1599;  1415.6512;            0   
    1600;  1416.5264;            1   
    1601;  1417.4017;            0   
    1602;  1418.2770;            0   
    1603;  1419.1523;            0   
    1604;  1420.0275;            0   
    1605;  1420.9028;            0   
    1606;  1421.7781;            0   
    1607;  1422.6534;            0   
    1608;  1423.5286;            0   
    1609;  1424.4039;            0   
    1610;  1425.2792;            0   
    1611;  1426.1545;            0   
    1612;  1427.0297;            0   
    1613;  1427.9050;            0   
    1614;  1428.7803;            1   
    1615;  1429.6556;            0   
    1616;  1430.5308;            0   
    1617;  1431.4061;            0   
    1618;  1432.2814;            2   
    1619;  1433.1567;            0   
    1620;  1434.0319;            0   
    1621;  1434.9072;            1   
    1622;  1435.7825;            0   
    1623;  1436.6578;            0   
    1624;  1437.5330;            0   
    1625;  1438.4083;            0   
    1626;  1439.2836;            0   
    1627;  1440.1589;            0   
    1628;  1441.0341;            0   
    1629;  1441.9094;            0   
    1630;  1442.7847;            0   
    1631;  1443.6600;            1   
    1632;  1444.5352;            2   
    1633;  1445.4105;            0   
    1634;  1446.2858;            0   
    1635;  1447.1611;            0   
    1636;  1448.0363;            0   
    1637;  1448.9116;            0   
    1638;  1449.7869;            0   
    1639;  1450.6622;            0   
    1640;  1451.5374;            0   
    1641;  1452.4127;            1   
    1642;  1453.2880;            0   
    1643;  1454.1633;            3   
    1644;  1455.0385;            1   
    1645;  1455.9138;            0   
    1646;  1456.7891;            0   
    1647;  1457.6644;            0   
    1648;  1458.5396;            0   
    1649;  1459.4149;            1   
    1650;  1460.2902;            0   
    1651;  1461.1655;            0   
    1652;  1462.0407;            0   
    1653;  1462.9160;            0   
    1654;  1463.7913;            0   
    1655;  1464.6666;            0   
    1656;  1465.5418;            0   
    1657;  1466.4171;            2   
    1658;  1467.2924;            0   
    1659;  1468.1677;            0   
    1660;  1469.0429;            0   
    1661;  1469.9182;            0   
    1662;  1470.7935;            0   
    1663;  1471.6688;            1   
    1664;  1472.5440;            0   
    1665;  1473.4193;            0   
    1666;  1474.2946;            0   
    1667;  1475.1699;            1   
    1668;  1476.0451;            0   
    1669;  1476.9204;            0   
    1670;  1477.7957;            1   
    1671;  1478.6710;            0   
    1672;  1479.5462;            0   
    1673;  1480.4215;            1   
    1674;  1481.2968;            0   
    1675;  1482.1721;            0   
    1676;  1483.0473;            0   
    1677;  1483.9226;            0   
    1678;  1484.7979;            0   
    1679;  1485.6732;            0   
    1680;  1486.5484;            1   
    1681;  1487.4237;            0   
    1682;  1488.2990;            0   
    1683;  1489.1743;            0   
    1684;  1490.0495;            0   
    1685;  1490.9248;            0   
    1686;  1491.8001;            1   
    1687;  1492.6754;            0   
    1688;  1493.5506;            0   
    1689;  1494.4259;            0   
    1690;  1495.3012;            0   
    1691;  1496.1765;            0   
    1692;  1497.0517;            0   
    1693;  1497.9270;            0   
    1694;  1498.8023;            0   
    1695;  1499.6776;            0   
    1696;  1500.5528;            0   
    1697;  1501.4281;            0   
    1698;  1502.3034;            0   
    1699;  1503.1787;            0   
    1700;  1504.0539;            1   
    1701;  1504.9292;            0   
    1702;  1505.8045;            0   
    1703;  1506.6798;            0   
    1704;  1507.5550;            0   
    1705;  1508.4303;            1   
    1706;  1509.3056;            0   
    1707;  1510.1809;            0   
    1708;  1511.0561;            0   
    1709;  1511.9314;            0   
    1710;  1512.8067;            0   
    1711;  1513.6820;            1   
    1712;  1514.5572;            0   
    1713;  1515.4325;            0   
    1714;  1516.3078;            0   
    1715;  1517.1831;            0   
    1716;  1518.0583;            0   
    1717;  1518.9336;            0   
    1718;  1519.8089;            0   
    1719;  1520.6842;            1   
    1720;  1521.5594;            1   
    1721;  1522.4347;            0   
    1722;  1523.3100;            0   
    1723;  1524.1853;            0   
    1724;  1525.0605;            1   
    1725;  1525.9358;            0   
    1726;  1526.8111;            0   
    1727;  1527.6864;            1   
    1728;  1528.5616;            0   
    1729;  1529.4369;            1   
    1730;  1530.3122;            0   
    1731;  1531.1875;            0   
    1732;  1532.0627;            0   
    1733;  1532.9380;            2   
    1734;  1533.8133;            1   
    1735;  1534.6886;            0   
    1736;  1535.5638;            1   
    1737;  1536.4391;            0   
    1738;  1537.3144;            0   
    1739;  1538.1897;            0   
    1740;  1539.0649;            0   
    1741;  1539.9402;            0   
    1742;  1540.8155;            0   
    1743;  1541.6908;            0   
    1744;  1542.5660;            0   
    1745;  1543.4413;            0   
    1746;  1544.3166;            0   
    1747;  1545.1919;            0   
    1748;  1546.0671;            0   
    1749;  1546.9424;            2   
    1750;  1547.8177;            0   
    1751;  1548.6930;            0   
    1752;  1549.5682;            1   
    1753;  1550.4435;            0   
    1754;  1551.3188;            0   
    1755;  1552.1941;            1   
    1756;  1553.0693;            1   
    1757;  1553.9446;            0   
    1758;  1554.8199;            0   
    1759;  1555.6952;            1   
    1760;  1556.5704;            1   
    1761;  1557.4457;            1   
    1762;  1558.3210;            0   
    1763;  1559.1963;            0   
    1764;  1560.0715;            0   
    1765;  1560.9468;            0   
    1766;  1561.8221;            0   
    1767;  1562.6974;            0   
    1768;  1563.5726;            0   
    1769;  1564.4479;            1   
    1770;  1565.3232;            0   
    1771;  1566.1985;            0   
    1772;  1567.0737;            0   
    1773;  1567.9490;            0   
    1774;  1568.8243;            0   
    1775;  1569.6996;            0   
    1776;  1570.5748;            0   
    1777;  1571.4501;            0   
    1778;  1572.3254;            0   
    1779;  1573.2007;            1   
    1780;  1574.0759;            0   
    1781;  1574.9512;            0   
    1782;  1575.8265;            0   
    1783;  1576.7018;            0   
    1784;  1577.5770;            0   
    1785;  1578.4523;            0   
    1786;  1579.3276;            0   
    1787;  1580.2029;            1   
    1788;  1581.0781;            0   
    1789;  1581.9534;            0   
    1790;  1582.8287;            0   
    1791;  1583.7040;            0   
    1792;  1584.5792;            0   
    1793;  1585.4545;            1   
    1794;  1586.3298;            0   
    1795;  1587.2051;            0   
    1796;  1588.0803;            0   
    1797;  1588.9556;            0   
    1798;  1589.8309;            0   
    1799;  1590.7062;            1   
    1800;  1591.5814;            1   
    1801;  1592.4567;            1   
    1802;  1593.3320;            0   
    1803;  1594.2073;            0   
    1804;  1595.0825;            0   
    1805;  1595.9578;            0   
    1806;  1596.8331;            0   
    1807;  1597.7084;            0   
    1808;  1598.5836;            0   
    1809;  1599.4589;            0   
    1810;  1600.3342;            0   
    1811;  1601.2095;            1   
    1812;  1602.0847;            1   
    1813;  1602.9600;            1   
    1814;  1603.8353;            0   
    1815;  1604.7106;            0   
    1816;  1605.5858;            0   
    1817;  1606.4611;            0   
    1818;  1607.3364;            0   
    1819;  1608.2117;            0   
    1820;  1609.0869;            0   
    1821;  1609.9622;            0   
    1822;  1610.8375;            0   
    1823;  1611.7128;            0   
    1824;  1612.5880;            0   
    1825;  1613.4633;            0   
    1826;  1614.3386;            0   
    1827;  1615.2139;            0   
    1828;  1616.0891;            0   
    1829;  1616.9644;            0   
    1830;  1617.8397;            1   
    1831;  1618.7150;            0   
    1832;  1619.5902;            0   
    1833;  1620.4655;            0   
    1834;  1621.3408;            0   
    1835;  1622.2161;            0   
    1836;  1623.0913;            0   
    1837;  1623.9666;            0   
    1838;  1624.8419;            0   
    1839;  1625.7172;            0   
    1840;  1626.5924;            0   
    1841;  1627.4677;            0   
    1842;  1628.3430;            0   
    1843;  1629.2183;            0   
    1844;  1630.0935;            0   
    1845;  1630.9688;            0   
    1846;  1631.8441;            0   
    1847;  1632.7194;            0   
    1848;  1633.5946;            0   
    1849;  1634.4699;            0   
    1850;  1635.3452;            0   
    1851;  1636.2205;            0   
    1852;  1637.0957;            0   
    1853;  1637.9710;            1   
    1854;  1638.8463;            0   
    1855;  1639.7216;            0   
    1856;  1640.5968;            0   
    1857;  1641.4721;            0   
    1858;  1642.3474;            0   
    1859;  1643.2227;            0   
    1860;  1644.0979;            2   
    1861;  1644.9732;            0   
    1862;  1645.8485;            0   
    1863;  1646.7238;            0   
    1864;  1647.5990;            1   
    1865;  1648.4743;            0   
    1866;  1649.3496;            0   
    1867;  1650.2249;            1   
    1868;  1651.1001;            1   
    1869;  1651.9754;            0   
    1870;  1652.8507;            0   
    1871;  1653.7260;            0   
    1872;  1654.6012;            0   
    1873;  1655.4765;            0   
    1874;  1656.3518;            0   
    1875;  1657.2271;            0   
    1876;  1658.1023;            0   
    1877;  1658.9776;            0   
    1878;  1659.8529;            0   
    1879;  1660.7282;            0   
    1880;  1661.6034;            0   
    1881;  1662.4787;            0   
    1882;  1663.3540;            1   
    1883;  1664.2293;            0   
    1884;  1665.1045;            0   
    1885;  1665.9798;            0   
    1886;  1666.8551;            1   
    1887;  1667.7304;            0   
    1888;  1668.6056;            0   
    1889;  1669.4809;            0   
    1890;  1670.3562;            0   
    1891;  1671.2315;            0   
    1892;  1672.1067;            0   
    1893;  1672.9820;            0   
    1894;  1673.8573;            0   
    1895;  1674.7326;            0   
    1896;  1675.6078;            0   
    1897;  1676.4831;            1   
    1898;  1677.3584;            0   
    1899;  1678.2337;            0   
    1900;  1679.1089;            0   
    1901;  1679.9842;            0   
    1902;  1680.8595;            1   
    1903;  1681.7348;            1   
    1904;  1682.6100;            0   
    1905;  1683.4853;            0   
    1906;  1684.3606;            0   
    1907;  1685.2359;            1   
    1908;  1686.1111;            0   
    1909;  1686.9864;            1   
    1910;  1687.8617;            0   
    1911;  1688.7370;            0   
    1912;  1689.6122;            0   
    1913;  1690.4875;            0   
    1914;  1691.3628;            0   
    1915;  1692.2381;            1   
    1916;  1693.1133;            0   
    1917;  1693.9886;            0   
    1918;  1694.8639;            0   
    1919;  1695.7392;            0   
    1920;  1696.6144;            1   
    1921;  1697.4897;            0   
    1922;  1698.3650;            1   
    1923;  1699.2403;            0   
    1924;  1700.1155;            0   
    1925;  1700.9908;            1   
    1926;  1701.8661;            1   
    1927;  1702.7414;            0   
    1928;  1703.6166;            0   
    1929;  1704.4919;            0   
    1930;  1705.3672;            0   
    1931;  1706.2425;            0   
    1932;  1707.1177;            1   
    1933;  1707.9930;            0   
    1934;  1708.8683;            0   
    1935;  1709.7436;            0   
    1936;  1710.6188;            0   
    1937;  1711.4941;            0   
    1938;  1712.3694;            0   
    1939;  1713.2447;            1   
    1940;  1714.1199;            0   
    1941;  1714.9952;            0   
    1942;  1715.8705;            0   
    1943;  1716.7458;            0   
    1944;  1717.6210;            0   
    1945;  1718.4963;            0   
    1946;  1719.3716;            0   
    1947;  1720.2469;            1   
    1948;  1721.1221;            0   
    1949;  1721.9974;            0   
    1950;  1722.8727;            0   
    1951;  1723.7480;            0   
    1952;  1724.6232;            0   
    1953;  1725.4985;            0   
    1954;  1726.3738;            0   
    1955;  1727.2491;            0   
    1956;  1728.1243;            0   
    1957;  1728.9996;            0   
    1958;  1729.8749;            0   
    1959;  1730.7502;            0   
    1960;  1731.6254;            0   
    1961;  1732.5007;            0   
    1962;  1733.3760;            0   
    1963;  1734.2513;            0   
    1964;  1735.1265;            0   
    1965;  1736.0018;            0   
    1966;  1736.8771;            0   
    1967;  1737.7524;            0   
    1968;  1738.6276;            0   
    1969;  1739.5029;            0   
    1970;  1740.3782;            0   
    1971;  1741.2535;            0   
    1972;  1742.1287;            0   
    1973;  1743.0040;            0   
    1974;  1743.8793;            0   
    1975;  1744.7546;            0   
    1976;  1745.6298;            0   
    1977;  1746.5051;            0   
    1978;  1747.3804;            0   
    1979;  1748.2557;            0   
    1980;  1749.1309;            0   
    1981;  1750.0062;            0   
    1982;  1750.8815;            0   
    1983;  1751.7568;            0   
    1984;  1752.6320;            0   
    1985;  1753.5073;            0   
    1986;  1754.3826;            0   
    1987;  1755.2579;            0   
    1988;  1756.1331;            0   
    1989;  1757.0084;            0   
    1990;  1757.8837;            0   
    1991;  1758.7590;            0   
    1992;  1759.6342;            0   
    1993;  1760.5095;            0   
    1994;  1761.3848;            0   
    1995;  1762.2601;            0   
    1996;  1763.1353;            0   
    1997;  1764.0106;            0   
    1998;  1764.8859;            0   
    1999;  1765.7612;            0   
    2000;  1766.6364;            0   
    2001;  1767.5117;            0   
    2002;  1768.3870;            0   
    2003;  1769.2623;            0   
    2004;  1770.1375;            0   
    2005;  1771.0128;            0   
    2006;  1771.8881;            0   
    2007;  1772.7634;            0   
    2008;  1773.6386;            0   
    2009;  1774.5139;            0   
    2010;  1775.3892;            0   
    2011;  1776.2645;            0   
    2012;  1777.1397;            0   
    2013;  1778.0150;            0   
    2014;  1778.8903;            0   
    2015;  1779.7656;            0   
    2016;  1780.6408;            0   
    2017;  1781.5161;            0   
    2018;  1782.3914;            0   
    2019;  1783.2667;            0   
    2020;  1784.1419;            0   
    2021;  1785.0172;            0   
    2022;  1785.8925;            0   
    2023;  1786.7678;            0   
    2024;  1787.6430;            0   
    2025;  1788.5183;            0   
    2026;  1789.3936;            0   
    2027;  1790.2689;            0   
    2028;  1791.1441;            0   
    2029;  1792.0194;            0   
    2030;  1792.8947;            0   
    2031;  1793.7700;            0   
    2032;  1794.6452;            0   
    2033;  1795.5205;            0   
    2034;  1796.3958;            0   
    2035;  1797.2711;            0   
    2036;  1798.1463;            0   
    2037;  1799.0216;            0   
    2038;  1799.8969;            0   
    2039;  1800.7722;            0   
    2040;  1801.6474;            0   
    2041;  1802.5227;            0   
    2042;  1803.3980;            0   
    2043;  1804.2733;            0   
    2044;  1805.1485;            0   
    2045;  1806.0238;            0   
    2046;  1806.8991;            0   
    2047;  1807.7744;            0   
    2048;  1808.6496;            0   
ROI Nummer; Anfangskanal; Endkanal; Anfangsenergie keV ; Endenergie keV; Nettoimpulse; Bruttoimpulse; Untergrundimpulse
In den Daten wurden keine Linien gefunden
ROI Nummer; prozentualer Fehler der Lage; Lage keV; FWHM keV; FWTM keV; FWTM/FWHM Verhltnis; H/L Verhltnis
No Peak records found in data.
Name; Energie keV; Flags; Aktivitt uCi/Unit; Aktivittsfehler %; NWG uCi/Unit; MDA Error %
Es wurden keine Nuklidergebnisse gefunden.
Name; Erwartete Endergie keV; Gemessene Energie keV; Differenz von erwarteter keV; FWHM; Flags; Aktivitt uCi/Unit; Aktivittsfehler %
Es wurden keine Nuklidergebnisse gefunden.
