Kanal;   Energie(keV); Impulse
       1;    16.9617;            0   
       2;    17.8370;            0   
       3;    18.7122;            0   
       4;    19.5875;            0   
       5;    20.4628;            0   
       6;    21.3381;            0   
       7;    22.2133;            0   
       8;    23.0886;            0   
       9;    23.9639;            0   
      10;    24.8392;            0   
      11;    25.7144;            0   
      12;    26.5897;            0   
      13;    27.4650;            0   
      14;    28.3403;            0   
      15;    29.2155;            0   
      16;    30.0908;            0   
      17;    30.9661;            0   
      18;    31.8414;            0   
      19;    32.7166;            0   
      20;    33.5919;            0   
      21;    34.4672;            0   
      22;    35.3425;            0   
      23;    36.2177;            0   
      24;    37.0930;            0   
      25;    37.9683;            0   
      26;    38.8436;            0   
      27;    39.7188;            0   
      28;    40.5941;            0   
      29;    41.4694;            0   
      30;    42.3447;            0   
      31;    43.2199;            0   
      32;    44.0952;            0   
      33;    44.9705;            0   
      34;    45.8458;            0   
      35;    46.7210;            0   
      36;    47.5963;            0   
      37;    48.4716;            0   
      38;    49.3469;            0   
      39;    50.2221;            0   
      40;    51.0974;            0   
      41;    51.9727;            0   
      42;    52.8480;            0   
      43;    53.7232;            0   
      44;    54.5985;            0   
      45;    55.4738;            0   
      46;    56.3491;            0   
      47;    57.2243;            3   
      48;    58.0996;            4   
      49;    58.9749;           15   
      50;    59.8502;           65   
      51;    60.7254;          137   
      52;    61.6007;          131   
      53;    62.4760;          250   
      54;    63.3513;          586   
      55;    64.2265;          475   
      56;    65.1018;          420   
      57;    65.9771;          370   
      58;    66.8524;          235   
      59;    67.7276;          263   
      60;    68.6029;          210   
      61;    69.4782;          213   
      62;    70.3535;          185   
      63;    71.2287;          176   
      64;    72.1040;          167   
      65;    72.9793;          148   
      66;    73.8546;          137   
      67;    74.7298;          133   
      68;    75.6051;          117   
      69;    76.4804;          120   
      70;    77.3557;          133   
      71;    78.2309;           82   
      72;    79.1062;          106   
      73;    79.9815;          105   
      74;    80.8568;           99   
      75;    81.7320;           81   
      76;    82.6073;           89   
      77;    83.4826;           74   
      78;    84.3579;           63   
      79;    85.2331;           77   
      80;    86.1084;           87   
      81;    86.9837;           76   
      82;    87.8590;           77   
      83;    88.7342;           67   
      84;    89.6095;           77   
      85;    90.4848;           63   
      86;    91.3601;           90   
      87;    92.2353;           65   
      88;    93.1106;           67   
      89;    93.9859;           68   
      90;    94.8612;           62   
      91;    95.7364;           72   
      92;    96.6117;           57   
      93;    97.4870;           64   
      94;    98.3623;           84   
      95;    99.2375;           60   
      96;   100.1128;           66   
      97;   100.9881;           51   
      98;   101.8634;           67   
      99;   102.7386;           65   
     100;   103.6139;           59   
     101;   104.4892;           65   
     102;   105.3645;           60   
     103;   106.2397;           47   
     104;   107.1150;           45   
     105;   107.9903;           62   
     106;   108.8656;           52   
     107;   109.7408;           31   
     108;   110.6161;           63   
     109;   111.4914;           47   
     110;   112.3667;           49   
     111;   113.2419;           46   
     112;   114.1172;           39   
     113;   114.9925;           46   
     114;   115.8678;           50   
     115;   116.7430;           54   
     116;   117.6183;           37   
     117;   118.4936;           49   
     118;   119.3689;           42   
     119;   120.2441;           48   
     120;   121.1194;           55   
     121;   121.9947;           44   
     122;   122.8700;           47   
     123;   123.7452;           43   
     124;   124.6205;           45   
     125;   125.4958;           30   
     126;   126.3711;           42   
     127;   127.2463;           30   
     128;   128.1216;           51   
     129;   128.9969;           39   
     130;   129.8722;           51   
     131;   130.7474;           31   
     132;   131.6227;           37   
     133;   132.4980;           41   
     134;   133.3733;           32   
     135;   134.2485;           37   
     136;   135.1238;           30   
     137;   135.9991;           42   
     138;   136.8744;           31   
     139;   137.7496;           38   
     140;   138.6249;           37   
     141;   139.5002;           43   
     142;   140.3755;           39   
     143;   141.2507;           37   
     144;   142.1260;           49   
     145;   143.0013;           26   
     146;   143.8766;           49   
     147;   144.7518;           39   
     148;   145.6271;           27   
     149;   146.5024;           34   
     150;   147.3777;           31   
     151;   148.2529;           42   
     152;   149.1282;           26   
     153;   150.0035;           33   
     154;   150.8788;           38   
     155;   151.7540;           19   
     156;   152.6293;           30   
     157;   153.5046;           36   
     158;   154.3799;           33   
     159;   155.2551;           28   
     160;   156.1304;           25   
     161;   157.0057;           27   
     162;   157.8810;           28   
     163;   158.7562;           25   
     164;   159.6315;           36   
     165;   160.5068;           32   
     166;   161.3821;           33   
     167;   162.2573;           42   
     168;   163.1326;           32   
     169;   164.0079;           27   
     170;   164.8832;           31   
     171;   165.7584;           18   
     172;   166.6337;           30   
     173;   167.5090;           30   
     174;   168.3843;           22   
     175;   169.2595;           23   
     176;   170.1348;           24   
     177;   171.0101;           28   
     178;   171.8854;           21   
     179;   172.7606;           15   
     180;   173.6359;           26   
     181;   174.5112;           21   
     182;   175.3865;           20   
     183;   176.2617;           20   
     184;   177.1370;           23   
     185;   178.0123;           20   
     186;   178.8876;           27   
     187;   179.7628;           23   
     188;   180.6381;           32   
     189;   181.5134;           23   
     190;   182.3887;           27   
     191;   183.2639;           21   
     192;   184.1392;           39   
     193;   185.0145;           23   
     194;   185.8898;           28   
     195;   186.7650;           29   
     196;   187.6403;           20   
     197;   188.5156;           19   
     198;   189.3909;           26   
     199;   190.2661;           18   
     200;   191.1414;           24   
     201;   192.0167;           20   
     202;   192.8920;           22   
     203;   193.7672;           26   
     204;   194.6425;           33   
     205;   195.5178;           33   
     206;   196.3931;           28   
     207;   197.2683;           20   
     208;   198.1436;           25   
     209;   199.0189;           17   
     210;   199.8942;           22   
     211;   200.7694;           22   
     212;   201.6447;           23   
     213;   202.5200;           14   
     214;   203.3953;           18   
     215;   204.2705;           22   
     216;   205.1458;           24   
     217;   206.0211;           19   
     218;   206.8964;           21   
     219;   207.7716;           23   
     220;   208.6469;           15   
     221;   209.5222;           20   
     222;   210.3975;           26   
     223;   211.2727;           18   
     224;   212.1480;           18   
     225;   213.0233;           18   
     226;   213.8986;           27   
     227;   214.7738;           16   
     228;   215.6491;           24   
     229;   216.5244;           23   
     230;   217.3997;           24   
     231;   218.2749;           16   
     232;   219.1502;           24   
     233;   220.0255;           25   
     234;   220.9008;           15   
     235;   221.7760;           21   
     236;   222.6513;           20   
     237;   223.5266;           24   
     238;   224.4019;           22   
     239;   225.2771;           14   
     240;   226.1524;           14   
     241;   227.0277;           15   
     242;   227.9030;           21   
     243;   228.7782;           20   
     244;   229.6535;           16   
     245;   230.5288;           16   
     246;   231.4041;           19   
     247;   232.2793;           12   
     248;   233.1546;           17   
     249;   234.0299;           19   
     250;   234.9052;            8   
     251;   235.7804;           20   
     252;   236.6557;           18   
     253;   237.5310;           12   
     254;   238.4063;           19   
     255;   239.2815;           15   
     256;   240.1568;           11   
     257;   241.0321;           20   
     258;   241.9074;           18   
     259;   242.7826;           22   
     260;   243.6579;           23   
     261;   244.5332;           16   
     262;   245.4085;           26   
     263;   246.2837;           22   
     264;   247.1590;           19   
     265;   248.0343;           19   
     266;   248.9096;           25   
     267;   249.7848;           16   
     268;   250.6601;           17   
     269;   251.5354;           20   
     270;   252.4107;           19   
     271;   253.2859;           12   
     272;   254.1612;           18   
     273;   255.0365;           15   
     274;   255.9118;           18   
     275;   256.7870;           14   
     276;   257.6623;           23   
     277;   258.5376;           13   
     278;   259.4129;           11   
     279;   260.2881;           22   
     280;   261.1634;           13   
     281;   262.0387;           13   
     282;   262.9140;           17   
     283;   263.7892;           20   
     284;   264.6645;           18   
     285;   265.5398;           13   
     286;   266.4151;           17   
     287;   267.2903;           19   
     288;   268.1656;           14   
     289;   269.0409;           16   
     290;   269.9162;           17   
     291;   270.7914;            8   
     292;   271.6667;           14   
     293;   272.5420;           18   
     294;   273.4173;           13   
     295;   274.2925;           12   
     296;   275.1678;           19   
     297;   276.0431;           16   
     298;   276.9184;           19   
     299;   277.7936;           10   
     300;   278.6689;            8   
     301;   279.5442;           17   
     302;   280.4195;           15   
     303;   281.2947;           16   
     304;   282.1700;           14   
     305;   283.0453;           17   
     306;   283.9206;           17   
     307;   284.7958;           19   
     308;   285.6711;           13   
     309;   286.5464;           12   
     310;   287.4217;           13   
     311;   288.2969;           17   
     312;   289.1722;           10   
     313;   290.0475;           11   
     314;   290.9228;           14   
     315;   291.7980;           13   
     316;   292.6733;           15   
     317;   293.5486;           11   
     318;   294.4239;           21   
     319;   295.2991;           18   
     320;   296.1744;            9   
     321;   297.0497;           11   
     322;   297.9250;           16   
     323;   298.8002;           21   
     324;   299.6755;           17   
     325;   300.5508;           11   
     326;   301.4261;           15   
     327;   302.3013;           13   
     328;   303.1766;           13   
     329;   304.0519;           15   
     330;   304.9272;           15   
     331;   305.8024;            8   
     332;   306.6777;           12   
     333;   307.5530;            9   
     334;   308.4283;           16   
     335;   309.3035;           10   
     336;   310.1788;            8   
     337;   311.0541;            6   
     338;   311.9294;            9   
     339;   312.8046;           10   
     340;   313.6799;           11   
     341;   314.5552;           12   
     342;   315.4305;           17   
     343;   316.3057;           12   
     344;   317.1810;           16   
     345;   318.0563;            9   
     346;   318.9316;            9   
     347;   319.8068;           14   
     348;   320.6821;           19   
     349;   321.5574;           13   
     350;   322.4327;           14   
     351;   323.3079;           14   
     352;   324.1832;           12   
     353;   325.0585;           11   
     354;   325.9338;           11   
     355;   326.8090;           14   
     356;   327.6843;           17   
     357;   328.5596;           21   
     358;   329.4349;           12   
     359;   330.3101;            6   
     360;   331.1854;            7   
     361;   332.0607;            6   
     362;   332.9360;            6   
     363;   333.8112;           15   
     364;   334.6865;            8   
     365;   335.5618;           13   
     366;   336.4371;           11   
     367;   337.3123;           17   
     368;   338.1876;            7   
     369;   339.0629;           10   
     370;   339.9382;           11   
     371;   340.8134;           10   
     372;   341.6887;           13   
     373;   342.5640;           14   
     374;   343.4393;            5   
     375;   344.3145;           11   
     376;   345.1898;           14   
     377;   346.0651;            7   
     378;   346.9404;           11   
     379;   347.8156;            6   
     380;   348.6909;            8   
     381;   349.5662;           10   
     382;   350.4415;           10   
     383;   351.3167;           14   
     384;   352.1920;            7   
     385;   353.0673;           15   
     386;   353.9426;            8   
     387;   354.8178;           11   
     388;   355.6931;           12   
     389;   356.5684;           14   
     390;   357.4437;            9   
     391;   358.3189;            7   
     392;   359.1942;            6   
     393;   360.0695;            7   
     394;   360.9448;            9   
     395;   361.8200;           12   
     396;   362.6953;            3   
     397;   363.5706;           11   
     398;   364.4459;           16   
     399;   365.3211;           15   
     400;   366.1964;           11   
     401;   367.0717;           10   
     402;   367.9470;           10   
     403;   368.8222;           10   
     404;   369.6975;           12   
     405;   370.5728;           13   
     406;   371.4481;            5   
     407;   372.3233;           11   
     408;   373.1986;            9   
     409;   374.0739;           10   
     410;   374.9492;            9   
     411;   375.8244;            5   
     412;   376.6997;           16   
     413;   377.5750;            9   
     414;   378.4503;            5   
     415;   379.3255;            8   
     416;   380.2008;            8   
     417;   381.0761;            7   
     418;   381.9514;           11   
     419;   382.8266;           10   
     420;   383.7019;            9   
     421;   384.5772;           11   
     422;   385.4525;           13   
     423;   386.3277;            5   
     424;   387.2030;            7   
     425;   388.0783;            2   
     426;   388.9536;           13   
     427;   389.8288;           11   
     428;   390.7041;            7   
     429;   391.5794;            7   
     430;   392.4547;            8   
     431;   393.3299;           10   
     432;   394.2052;           13   
     433;   395.0805;           14   
     434;   395.9558;           12   
     435;   396.8310;           13   
     436;   397.7063;            9   
     437;   398.5816;            8   
     438;   399.4569;            6   
     439;   400.3321;            6   
     440;   401.2074;            9   
     441;   402.0827;            6   
     442;   402.9580;           14   
     443;   403.8332;            9   
     444;   404.7085;           11   
     445;   405.5838;            2   
     446;   406.4591;            8   
     447;   407.3343;            9   
     448;   408.2096;            6   
     449;   409.0849;            9   
     450;   409.9602;            4   
     451;   410.8354;           11   
     452;   411.7107;            6   
     453;   412.5860;            7   
     454;   413.4613;           12   
     455;   414.3365;            9   
     456;   415.2118;           10   
     457;   416.0871;            5   
     458;   416.9624;           11   
     459;   417.8376;            7   
     460;   418.7129;            3   
     461;   419.5882;           10   
     462;   420.4635;           11   
     463;   421.3387;            8   
     464;   422.2140;            6   
     465;   423.0893;           14   
     466;   423.9646;            8   
     467;   424.8398;            6   
     468;   425.7151;            5   
     469;   426.5904;           10   
     470;   427.4657;            7   
     471;   428.3409;            6   
     472;   429.2162;            6   
     473;   430.0915;            5   
     474;   430.9668;            8   
     475;   431.8420;            8   
     476;   432.7173;            4   
     477;   433.5926;           10   
     478;   434.4679;            8   
     479;   435.3431;            8   
     480;   436.2184;           16   
     481;   437.0937;            9   
     482;   437.9690;            5   
     483;   438.8442;            9   
     484;   439.7195;            9   
     485;   440.5948;           12   
     486;   441.4701;            5   
     487;   442.3453;            8   
     488;   443.2206;            9   
     489;   444.0959;            6   
     490;   444.9712;           11   
     491;   445.8464;            7   
     492;   446.7217;            6   
     493;   447.5970;            3   
     494;   448.4723;           16   
     495;   449.3475;            8   
     496;   450.2228;            6   
     497;   451.0981;            9   
     498;   451.9734;            8   
     499;   452.8486;            9   
     500;   453.7239;            5   
     501;   454.5992;            9   
     502;   455.4745;            9   
     503;   456.3497;            6   
     504;   457.2250;            7   
     505;   458.1003;            8   
     506;   458.9756;            4   
     507;   459.8508;           13   
     508;   460.7261;            6   
     509;   461.6014;           10   
     510;   462.4767;            6   
     511;   463.3519;            3   
     512;   464.2272;           11   
     513;   465.1025;            9   
     514;   465.9778;            4   
     515;   466.8530;            8   
     516;   467.7283;            5   
     517;   468.6036;            8   
     518;   469.4789;            8   
     519;   470.3541;            3   
     520;   471.2294;            7   
     521;   472.1047;            4   
     522;   472.9800;            6   
     523;   473.8552;            4   
     524;   474.7305;            4   
     525;   475.6058;            1   
     526;   476.4811;            7   
     527;   477.3563;            6   
     528;   478.2316;            6   
     529;   479.1069;            9   
     530;   479.9822;            7   
     531;   480.8574;            8   
     532;   481.7327;           11   
     533;   482.6080;            7   
     534;   483.4833;           13   
     535;   484.3585;            5   
     536;   485.2338;           10   
     537;   486.1091;            7   
     538;   486.9844;            4   
     539;   487.8596;            8   
     540;   488.7349;           10   
     541;   489.6102;            8   
     542;   490.4855;            6   
     543;   491.3607;            9   
     544;   492.2360;            2   
     545;   493.1113;            5   
     546;   493.9866;            7   
     547;   494.8618;            6   
     548;   495.7371;            7   
     549;   496.6124;            8   
     550;   497.4877;            7   
     551;   498.3629;           12   
     552;   499.2382;           14   
     553;   500.1135;            5   
     554;   500.9888;            3   
     555;   501.8640;            4   
     556;   502.7393;            7   
     557;   503.6146;            8   
     558;   504.4899;            5   
     559;   505.3651;            3   
     560;   506.2404;            8   
     561;   507.1157;            9   
     562;   507.9910;            2   
     563;   508.8662;            9   
     564;   509.7415;            3   
     565;   510.6168;           10   
     566;   511.4921;            5   
     567;   512.3673;           10   
     568;   513.2426;            9   
     569;   514.1179;            6   
     570;   514.9932;            6   
     571;   515.8684;            5   
     572;   516.7437;            6   
     573;   517.6190;            7   
     574;   518.4943;            9   
     575;   519.3695;            5   
     576;   520.2448;            5   
     577;   521.1201;            1   
     578;   521.9954;            6   
     579;   522.8706;            3   
     580;   523.7459;           10   
     581;   524.6212;            2   
     582;   525.4965;           15   
     583;   526.3717;           11   
     584;   527.2470;            7   
     585;   528.1223;            9   
     586;   528.9976;            6   
     587;   529.8728;           12   
     588;   530.7481;            4   
     589;   531.6234;           11   
     590;   532.4987;            5   
     591;   533.3739;            6   
     592;   534.2492;            7   
     593;   535.1245;            8   
     594;   535.9998;            6   
     595;   536.8750;            8   
     596;   537.7503;            2   
     597;   538.6256;            5   
     598;   539.5009;            4   
     599;   540.3761;            5   
     600;   541.2514;            8   
     601;   542.1267;            9   
     602;   543.0020;            8   
     603;   543.8772;            4   
     604;   544.7525;           11   
     605;   545.6278;            4   
     606;   546.5031;            7   
     607;   547.3783;            7   
     608;   548.2536;            7   
     609;   549.1289;            9   
     610;   550.0042;            8   
     611;   550.8794;            5   
     612;   551.7547;            3   
     613;   552.6300;            6   
     614;   553.5053;            3   
     615;   554.3805;            3   
     616;   555.2558;            3   
     617;   556.1311;            6   
     618;   557.0064;            2   
     619;   557.8816;            6   
     620;   558.7569;            7   
     621;   559.6322;            7   
     622;   560.5075;            7   
     623;   561.3827;            4   
     624;   562.2580;            6   
     625;   563.1333;            5   
     626;   564.0086;            4   
     627;   564.8838;            2   
     628;   565.7591;            6   
     629;   566.6344;            6   
     630;   567.5097;            5   
     631;   568.3849;            6   
     632;   569.2602;            6   
     633;   570.1355;            5   
     634;   571.0108;            4   
     635;   571.8860;            4   
     636;   572.7613;            5   
     637;   573.6366;            6   
     638;   574.5119;            5   
     639;   575.3871;            8   
     640;   576.2624;            2   
     641;   577.1377;            2   
     642;   578.0130;            2   
     643;   578.8882;           11   
     644;   579.7635;            6   
     645;   580.6388;            3   
     646;   581.5141;            8   
     647;   582.3893;            5   
     648;   583.2646;            7   
     649;   584.1399;            9   
     650;   585.0152;            4   
     651;   585.8904;            5   
     652;   586.7657;            5   
     653;   587.6410;            3   
     654;   588.5163;            4   
     655;   589.3915;            7   
     656;   590.2668;            6   
     657;   591.1421;            5   
     658;   592.0174;            5   
     659;   592.8926;            9   
     660;   593.7679;            4   
     661;   594.6432;            6   
     662;   595.5185;            3   
     663;   596.3937;            5   
     664;   597.2690;            3   
     665;   598.1443;            7   
     666;   599.0196;            3   
     667;   599.8948;           10   
     668;   600.7701;           14   
     669;   601.6454;            4   
     670;   602.5207;            3   
     671;   603.3959;            3   
     672;   604.2712;            3   
     673;   605.1465;            8   
     674;   606.0218;            3   
     675;   606.8970;            3   
     676;   607.7723;            4   
     677;   608.6476;            3   
     678;   609.5229;            6   
     679;   610.3981;            2   
     680;   611.2734;            6   
     681;   612.1487;            4   
     682;   613.0240;            6   
     683;   613.8992;            6   
     684;   614.7745;            4   
     685;   615.6498;            6   
     686;   616.5251;            4   
     687;   617.4003;            4   
     688;   618.2756;            5   
     689;   619.1509;            7   
     690;   620.0262;            1   
     691;   620.9014;            5   
     692;   621.7767;            6   
     693;   622.6520;            5   
     694;   623.5273;            7   
     695;   624.4025;            9   
     696;   625.2778;            9   
     697;   626.1531;            1   
     698;   627.0284;            6   
     699;   627.9036;            4   
     700;   628.7789;            4   
     701;   629.6542;            6   
     702;   630.5295;            4   
     703;   631.4047;            3   
     704;   632.2800;            6   
     705;   633.1553;            6   
     706;   634.0306;            6   
     707;   634.9058;            5   
     708;   635.7811;            4   
     709;   636.6564;            1   
     710;   637.5317;            5   
     711;   638.4069;            2   
     712;   639.2822;            2   
     713;   640.1575;            4   
     714;   641.0328;            2   
     715;   641.9080;            7   
     716;   642.7833;            3   
     717;   643.6586;            3   
     718;   644.5339;            6   
     719;   645.4091;            5   
     720;   646.2844;            8   
     721;   647.1597;            6   
     722;   648.0350;            6   
     723;   648.9102;            3   
     724;   649.7855;            3   
     725;   650.6608;            6   
     726;   651.5361;            3   
     727;   652.4113;            2   
     728;   653.2866;            6   
     729;   654.1619;            4   
     730;   655.0372;            5   
     731;   655.9124;            4   
     732;   656.7877;            5   
     733;   657.6630;            7   
     734;   658.5383;            4   
     735;   659.4135;            3   
     736;   660.2888;            5   
     737;   661.1641;            7   
     738;   662.0394;            4   
     739;   662.9146;            6   
     740;   663.7899;            7   
     741;   664.6652;            6   
     742;   665.5405;            5   
     743;   666.4157;            5   
     744;   667.2910;            5   
     745;   668.1663;            6   
     746;   669.0416;            4   
     747;   669.9168;            7   
     748;   670.7921;            0   
     749;   671.6674;            5   
     750;   672.5427;            2   
     751;   673.4179;            3   
     752;   674.2932;            3   
     753;   675.1685;            4   
     754;   676.0438;            4   
     755;   676.9190;            1   
     756;   677.7943;            5   
     757;   678.6696;            2   
     758;   679.5449;            1   
     759;   680.4201;            2   
     760;   681.2954;            3   
     761;   682.1707;            6   
     762;   683.0460;            2   
     763;   683.9212;            7   
     764;   684.7965;            3   
     765;   685.6718;            9   
     766;   686.5471;            3   
     767;   687.4223;            4   
     768;   688.2976;            5   
     769;   689.1729;            8   
     770;   690.0482;            6   
     771;   690.9234;            6   
     772;   691.7987;            5   
     773;   692.6740;            5   
     774;   693.5493;            5   
     775;   694.4245;            5   
     776;   695.2998;            6   
     777;   696.1751;            0   
     778;   697.0504;            3   
     779;   697.9256;            6   
     780;   698.8009;            2   
     781;   699.6762;            9   
     782;   700.5515;            5   
     783;   701.4267;            5   
     784;   702.3020;            5   
     785;   703.1773;            5   
     786;   704.0526;            8   
     787;   704.9278;            4   
     788;   705.8031;            7   
     789;   706.6784;            5   
     790;   707.5537;            3   
     791;   708.4289;            5   
     792;   709.3042;            4   
     793;   710.1795;            9   
     794;   711.0548;            6   
     795;   711.9300;            5   
     796;   712.8053;            2   
     797;   713.6806;            5   
     798;   714.5559;            3   
     799;   715.4311;            2   
     800;   716.3064;            4   
     801;   717.1817;            2   
     802;   718.0570;            7   
     803;   718.9322;            1   
     804;   719.8075;            8   
     805;   720.6828;            1   
     806;   721.5581;            5   
     807;   722.4333;            2   
     808;   723.3086;            7   
     809;   724.1839;            3   
     810;   725.0592;            4   
     811;   725.9344;            3   
     812;   726.8097;            4   
     813;   727.6850;            3   
     814;   728.5603;            5   
     815;   729.4355;            3   
     816;   730.3108;            4   
     817;   731.1861;            1   
     818;   732.0614;            5   
     819;   732.9366;            5   
     820;   733.8119;            6   
     821;   734.6872;            4   
     822;   735.5625;            4   
     823;   736.4377;            5   
     824;   737.3130;            4   
     825;   738.1883;            2   
     826;   739.0636;            3   
     827;   739.9388;            3   
     828;   740.8141;            3   
     829;   741.6894;            2   
     830;   742.5647;            5   
     831;   743.4399;            3   
     832;   744.3152;            1   
     833;   745.1905;            3   
     834;   746.0658;            1   
     835;   746.9410;            2   
     836;   747.8163;            9   
     837;   748.6916;            8   
     838;   749.5669;            5   
     839;   750.4421;            4   
     840;   751.3174;            4   
     841;   752.1927;            2   
     842;   753.0680;            5   
     843;   753.9432;            3   
     844;   754.8185;            3   
     845;   755.6938;            5   
     846;   756.5691;            2   
     847;   757.4443;           10   
     848;   758.3196;            4   
     849;   759.1949;            3   
     850;   760.0702;            2   
     851;   760.9454;            3   
     852;   761.8207;            6   
     853;   762.6960;            2   
     854;   763.5713;            4   
     855;   764.4465;            4   
     856;   765.3218;            7   
     857;   766.1971;            3   
     858;   767.0724;            4   
     859;   767.9476;            3   
     860;   768.8229;            4   
     861;   769.6982;            3   
     862;   770.5735;            0   
     863;   771.4487;            6   
     864;   772.3240;            9   
     865;   773.1993;            4   
     866;   774.0746;            2   
     867;   774.9498;            2   
     868;   775.8251;            1   
     869;   776.7004;            3   
     870;   777.5757;            7   
     871;   778.4509;            3   
     872;   779.3262;            4   
     873;   780.2015;            3   
     874;   781.0768;            5   
     875;   781.9520;            1   
     876;   782.8273;            6   
     877;   783.7026;            1   
     878;   784.5779;            3   
     879;   785.4531;            5   
     880;   786.3284;            3   
     881;   787.2037;            3   
     882;   788.0790;            2   
     883;   788.9542;            3   
     884;   789.8295;            1   
     885;   790.7048;            3   
     886;   791.5801;            4   
     887;   792.4553;            0   
     888;   793.3306;            2   
     889;   794.2059;            2   
     890;   795.0812;            7   
     891;   795.9564;            2   
     892;   796.8317;            6   
     893;   797.7070;            2   
     894;   798.5823;            3   
     895;   799.4575;            3   
     896;   800.3328;            7   
     897;   801.2081;            4   
     898;   802.0834;            2   
     899;   802.9586;            1   
     900;   803.8339;            2   
     901;   804.7092;            6   
     902;   805.5845;            3   
     903;   806.4597;            1   
     904;   807.3350;            1   
     905;   808.2103;            3   
     906;   809.0856;            5   
     907;   809.9608;            2   
     908;   810.8361;            4   
     909;   811.7114;            9   
     910;   812.5867;            2   
     911;   813.4619;            2   
     912;   814.3372;            6   
     913;   815.2125;            3   
     914;   816.0878;            2   
     915;   816.9631;            2   
     916;   817.8383;            5   
     917;   818.7136;            4   
     918;   819.5889;            4   
     919;   820.4642;            6   
     920;   821.3394;            8   
     921;   822.2147;            2   
     922;   823.0900;            1   
     923;   823.9653;            0   
     924;   824.8405;            4   
     925;   825.7158;            2   
     926;   826.5911;            1   
     927;   827.4664;            4   
     928;   828.3416;            4   
     929;   829.2169;            1   
     930;   830.0922;            1   
     931;   830.9675;            3   
     932;   831.8427;            2   
     933;   832.7180;            1   
     934;   833.5933;            4   
     935;   834.4686;            3   
     936;   835.3438;            3   
     937;   836.2191;            3   
     938;   837.0944;            4   
     939;   837.9697;            6   
     940;   838.8449;            2   
     941;   839.7202;            0   
     942;   840.5955;            4   
     943;   841.4708;            2   
     944;   842.3460;            2   
     945;   843.2213;            3   
     946;   844.0966;            4   
     947;   844.9719;            3   
     948;   845.8471;            5   
     949;   846.7224;            3   
     950;   847.5977;            1   
     951;   848.4730;            3   
     952;   849.3482;            3   
     953;   850.2235;            2   
     954;   851.0988;            3   
     955;   851.9741;            3   
     956;   852.8493;            2   
     957;   853.7246;            2   
     958;   854.5999;            3   
     959;   855.4752;            6   
     960;   856.3504;            3   
     961;   857.2257;            3   
     962;   858.1010;            3   
     963;   858.9763;            3   
     964;   859.8515;            3   
     965;   860.7268;            2   
     966;   861.6021;            2   
     967;   862.4774;            2   
     968;   863.3526;            3   
     969;   864.2279;            3   
     970;   865.1032;            2   
     971;   865.9785;            3   
     972;   866.8537;            1   
     973;   867.7290;            5   
     974;   868.6043;            2   
     975;   869.4796;            3   
     976;   870.3548;            1   
     977;   871.2301;            3   
     978;   872.1054;            1   
     979;   872.9807;            3   
     980;   873.8559;            3   
     981;   874.7312;            2   
     982;   875.6065;            0   
     983;   876.4818;            0   
     984;   877.3570;            1   
     985;   878.2323;            1   
     986;   879.1076;            2   
     987;   879.9829;            2   
     988;   880.8581;            3   
     989;   881.7334;            3   
     990;   882.6087;            5   
     991;   883.4840;            4   
     992;   884.3592;            5   
     993;   885.2345;            3   
     994;   886.1098;            2   
     995;   886.9851;            6   
     996;   887.8603;            1   
     997;   888.7356;            2   
     998;   889.6109;            2   
     999;   890.4862;            2   
    1000;   891.3614;            4   
    1001;   892.2367;            3   
    1002;   893.1120;            5   
    1003;   893.9873;            3   
    1004;   894.8625;            4   
    1005;   895.7378;            3   
    1006;   896.6131;            1   
    1007;   897.4884;            3   
    1008;   898.3636;            3   
    1009;   899.2389;            3   
    1010;   900.1142;            3   
    1011;   900.9895;            6   
    1012;   901.8647;            1   
    1013;   902.7400;            2   
    1014;   903.6153;            2   
    1015;   904.4906;            0   
    1016;   905.3658;            2   
    1017;   906.2411;            3   
    1018;   907.1164;            1   
    1019;   907.9917;            2   
    1020;   908.8669;            2   
    1021;   909.7422;            3   
    1022;   910.6175;            4   
    1023;   911.4928;            1   
    1024;   912.3680;            1   
    1025;   913.2433;            3   
    1026;   914.1186;            3   
    1027;   914.9939;            1   
    1028;   915.8691;            1   
    1029;   916.7444;            3   
    1030;   917.6197;            2   
    1031;   918.4950;            4   
    1032;   919.3702;            1   
    1033;   920.2455;            0   
    1034;   921.1208;            0   
    1035;   921.9961;            4   
    1036;   922.8713;            1   
    1037;   923.7466;            0   
    1038;   924.6219;            3   
    1039;   925.4972;            0   
    1040;   926.3724;            2   
    1041;   927.2477;            1   
    1042;   928.1230;            1   
    1043;   928.9983;            1   
    1044;   929.8735;            2   
    1045;   930.7488;            1   
    1046;   931.6241;            0   
    1047;   932.4994;            4   
    1048;   933.3746;            1   
    1049;   934.2499;            1   
    1050;   935.1252;            0   
    1051;   936.0005;            3   
    1052;   936.8757;            3   
    1053;   937.7510;            0   
    1054;   938.6263;            0   
    1055;   939.5016;            2   
    1056;   940.3768;            0   
    1057;   941.2521;            1   
    1058;   942.1274;            3   
    1059;   943.0027;            2   
    1060;   943.8779;            1   
    1061;   944.7532;            1   
    1062;   945.6285;            3   
    1063;   946.5038;            3   
    1064;   947.3790;            0   
    1065;   948.2543;            2   
    1066;   949.1296;            2   
    1067;   950.0049;            2   
    1068;   950.8801;            2   
    1069;   951.7554;            0   
    1070;   952.6307;            0   
    1071;   953.5060;            2   
    1072;   954.3812;            1   
    1073;   955.2565;            2   
    1074;   956.1318;            0   
    1075;   957.0071;            5   
    1076;   957.8823;            2   
    1077;   958.7576;            1   
    1078;   959.6329;            2   
    1079;   960.5082;            2   
    1080;   961.3834;            4   
    1081;   962.2587;            0   
    1082;   963.1340;            2   
    1083;   964.0093;            1   
    1084;   964.8845;            0   
    1085;   965.7598;            1   
    1086;   966.6351;            2   
    1087;   967.5104;            3   
    1088;   968.3856;            1   
    1089;   969.2609;            0   
    1090;   970.1362;            0   
    1091;   971.0115;            1   
    1092;   971.8867;            0   
    1093;   972.7620;            1   
    1094;   973.6373;            1   
    1095;   974.5126;            3   
    1096;   975.3878;            1   
    1097;   976.2631;            1   
    1098;   977.1384;            1   
    1099;   978.0137;            1   
    1100;   978.8889;            2   
    1101;   979.7642;            1   
    1102;   980.6395;            4   
    1103;   981.5148;            3   
    1104;   982.3900;            0   
    1105;   983.2653;            0   
    1106;   984.1406;            2   
    1107;   985.0159;            1   
    1108;   985.8911;            0   
    1109;   986.7664;            4   
    1110;   987.6417;            0   
    1111;   988.5170;            1   
    1112;   989.3922;            1   
    1113;   990.2675;            0   
    1114;   991.1428;            0   
    1115;   992.0181;            1   
    1116;   992.8933;            0   
    1117;   993.7686;            0   
    1118;   994.6439;            1   
    1119;   995.5192;            5   
    1120;   996.3944;            1   
    1121;   997.2697;            0   
    1122;   998.1450;            2   
    1123;   999.0203;            1   
    1124;   999.8955;            0   
    1125;  1000.7708;            0   
    1126;  1001.6461;            0   
    1127;  1002.5214;            2   
    1128;  1003.3966;            0   
    1129;  1004.2719;            1   
    1130;  1005.1472;            6   
    1131;  1006.0225;            1   
    1132;  1006.8977;            1   
    1133;  1007.7730;            0   
    1134;  1008.6483;            0   
    1135;  1009.5236;            1   
    1136;  1010.3988;            0   
    1137;  1011.2741;            4   
    1138;  1012.1494;            1   
    1139;  1013.0247;            2   
    1140;  1013.8999;            1   
    1141;  1014.7752;            0   
    1142;  1015.6505;            2   
    1143;  1016.5258;            3   
    1144;  1017.4010;            1   
    1145;  1018.2763;            6   
    1146;  1019.1516;            0   
    1147;  1020.0269;            2   
    1148;  1020.9021;            1   
    1149;  1021.7774;            1   
    1150;  1022.6527;            1   
    1151;  1023.5280;            2   
    1152;  1024.4032;            2   
    1153;  1025.2785;            1   
    1154;  1026.1538;            2   
    1155;  1027.0291;            1   
    1156;  1027.9043;            3   
    1157;  1028.7796;            0   
    1158;  1029.6549;            0   
    1159;  1030.5302;            1   
    1160;  1031.4054;            1   
    1161;  1032.2807;            1   
    1162;  1033.1560;            0   
    1163;  1034.0313;            1   
    1164;  1034.9065;            1   
    1165;  1035.7818;            0   
    1166;  1036.6571;            1   
    1167;  1037.5324;            0   
    1168;  1038.4076;            1   
    1169;  1039.2829;            1   
    1170;  1040.1582;            0   
    1171;  1041.0335;            3   
    1172;  1041.9087;            1   
    1173;  1042.7840;            1   
    1174;  1043.6593;            1   
    1175;  1044.5346;            2   
    1176;  1045.4098;            1   
    1177;  1046.2851;            0   
    1178;  1047.1604;            1   
    1179;  1048.0357;            1   
    1180;  1048.9109;            2   
    1181;  1049.7862;            1   
    1182;  1050.6615;            0   
    1183;  1051.5368;            1   
    1184;  1052.4120;            0   
    1185;  1053.2873;            0   
    1186;  1054.1626;            2   
    1187;  1055.0379;            2   
    1188;  1055.9131;            0   
    1189;  1056.7884;            0   
    1190;  1057.6637;            2   
    1191;  1058.5390;            0   
    1192;  1059.4142;            1   
    1193;  1060.2895;            1   
    1194;  1061.1648;            1   
    1195;  1062.0401;            1   
    1196;  1062.9153;            2   
    1197;  1063.7906;            0   
    1198;  1064.6659;            1   
    1199;  1065.5412;            0   
    1200;  1066.4164;            0   
    1201;  1067.2917;            1   
    1202;  1068.1670;            0   
    1203;  1069.0423;            1   
    1204;  1069.9175;            0   
    1205;  1070.7928;            1   
    1206;  1071.6681;            0   
    1207;  1072.5434;            0   
    1208;  1073.4186;            0   
    1209;  1074.2939;            1   
    1210;  1075.1692;            0   
    1211;  1076.0445;            0   
    1212;  1076.9197;            1   
    1213;  1077.7950;            1   
    1214;  1078.6703;            0   
    1215;  1079.5456;            0   
    1216;  1080.4208;            1   
    1217;  1081.2961;            0   
    1218;  1082.1714;            1   
    1219;  1083.0467;            1   
    1220;  1083.9219;            0   
    1221;  1084.7972;            2   
    1222;  1085.6725;            1   
    1223;  1086.5478;            1   
    1224;  1087.4230;            2   
    1225;  1088.2983;            1   
    1226;  1089.1736;            0   
    1227;  1090.0489;            1   
    1228;  1090.9241;            0   
    1229;  1091.7994;            0   
    1230;  1092.6747;            1   
    1231;  1093.5500;            3   
    1232;  1094.4252;            1   
    1233;  1095.3005;            1   
    1234;  1096.1758;            3   
    1235;  1097.0511;            1   
    1236;  1097.9263;            0   
    1237;  1098.8016;            1   
    1238;  1099.6769;            1   
    1239;  1100.5522;            1   
    1240;  1101.4274;            2   
    1241;  1102.3027;            1   
    1242;  1103.1780;            0   
    1243;  1104.0533;            3   
    1244;  1104.9285;            0   
    1245;  1105.8038;            2   
    1246;  1106.6791;            0   
    1247;  1107.5544;            0   
    1248;  1108.4296;            1   
    1249;  1109.3049;            0   
    1250;  1110.1802;            1   
    1251;  1111.0555;            1   
    1252;  1111.9307;            1   
    1253;  1112.8060;            2   
    1254;  1113.6813;            1   
    1255;  1114.5566;            1   
    1256;  1115.4318;            1   
    1257;  1116.3071;            1   
    1258;  1117.1824;            0   
    1259;  1118.0577;            0   
    1260;  1118.9329;            0   
    1261;  1119.8082;            2   
    1262;  1120.6835;            0   
    1263;  1121.5588;            0   
    1264;  1122.4340;            1   
    1265;  1123.3093;            0   
    1266;  1124.1846;            2   
    1267;  1125.0599;            0   
    1268;  1125.9351;            2   
    1269;  1126.8104;            0   
    1270;  1127.6857;            0   
    1271;  1128.5610;            0   
    1272;  1129.4362;            1   
    1273;  1130.3115;            0   
    1274;  1131.1868;            1   
    1275;  1132.0621;            0   
    1276;  1132.9373;            2   
    1277;  1133.8126;            1   
    1278;  1134.6879;            0   
    1279;  1135.5632;            1   
    1280;  1136.4384;            1   
    1281;  1137.3137;            1   
    1282;  1138.1890;            1   
    1283;  1139.0643;            0   
    1284;  1139.9395;            0   
    1285;  1140.8148;            2   
    1286;  1141.6901;            0   
    1287;  1142.5654;            0   
    1288;  1143.4406;            0   
    1289;  1144.3159;            1   
    1290;  1145.1912;            0   
    1291;  1146.0665;            0   
    1292;  1146.9417;            1   
    1293;  1147.8170;            2   
    1294;  1148.6923;            1   
    1295;  1149.5676;            1   
    1296;  1150.4428;            0   
    1297;  1151.3181;            0   
    1298;  1152.1934;            2   
    1299;  1153.0687;            2   
    1300;  1153.9439;            1   
    1301;  1154.8192;            0   
    1302;  1155.6945;            2   
    1303;  1156.5698;            0   
    1304;  1157.4450;            0   
    1305;  1158.3203;            1   
    1306;  1159.1956;            1   
    1307;  1160.0709;            0   
    1308;  1160.9461;            0   
    1309;  1161.8214;            0   
    1310;  1162.6967;            0   
    1311;  1163.5720;            1   
    1312;  1164.4472;            0   
    1313;  1165.3225;            1   
    1314;  1166.1978;            0   
    1315;  1167.0731;            0   
    1316;  1167.9483;            0   
    1317;  1168.8236;            1   
    1318;  1169.6989;            1   
    1319;  1170.5742;            0   
    1320;  1171.4494;            1   
    1321;  1172.3247;            0   
    1322;  1173.2000;            0   
    1323;  1174.0753;            0   
    1324;  1174.9505;            1   
    1325;  1175.8258;            1   
    1326;  1176.7011;            1   
    1327;  1177.5764;            0   
    1328;  1178.4516;            0   
    1329;  1179.3269;            1   
    1330;  1180.2022;            1   
    1331;  1181.0775;            0   
    1332;  1181.9527;            1   
    1333;  1182.8280;            0   
    1334;  1183.7033;            1   
    1335;  1184.5786;            2   
    1336;  1185.4538;            0   
    1337;  1186.3291;            0   
    1338;  1187.2044;            1   
    1339;  1188.0797;            1   
    1340;  1188.9549;            2   
    1341;  1189.8302;            0   
    1342;  1190.7055;            0   
    1343;  1191.5808;            0   
    1344;  1192.4560;            1   
    1345;  1193.3313;            0   
    1346;  1194.2066;            2   
    1347;  1195.0819;            0   
    1348;  1195.9571;            0   
    1349;  1196.8324;            0   
    1350;  1197.7077;            1   
    1351;  1198.5830;            0   
    1352;  1199.4582;            0   
    1353;  1200.3335;            0   
    1354;  1201.2088;            1   
    1355;  1202.0841;            1   
    1356;  1202.9593;            2   
    1357;  1203.8346;            0   
    1358;  1204.7099;            1   
    1359;  1205.5852;            0   
    1360;  1206.4604;            0   
    1361;  1207.3357;            0   
    1362;  1208.2110;            0   
    1363;  1209.0863;            0   
    1364;  1209.9615;            1   
    1365;  1210.8368;            0   
    1366;  1211.7121;            0   
    1367;  1212.5874;            2   
    1368;  1213.4626;            1   
    1369;  1214.3379;            0   
    1370;  1215.2132;            0   
    1371;  1216.0885;            0   
    1372;  1216.9637;            0   
    1373;  1217.8390;            2   
    1374;  1218.7143;            0   
    1375;  1219.5896;            0   
    1376;  1220.4648;            0   
    1377;  1221.3401;            1   
    1378;  1222.2154;            2   
    1379;  1223.0907;            0   
    1380;  1223.9659;            0   
    1381;  1224.8412;            1   
    1382;  1225.7165;            0   
    1383;  1226.5918;            0   
    1384;  1227.4670;            1   
    1385;  1228.3423;            1   
    1386;  1229.2176;            0   
    1387;  1230.0929;            1   
    1388;  1230.9681;            0   
    1389;  1231.8434;            0   
    1390;  1232.7187;            0   
    1391;  1233.5940;            0   
    1392;  1234.4692;            0   
    1393;  1235.3445;            0   
    1394;  1236.2198;            1   
    1395;  1237.0951;            1   
    1396;  1237.9703;            1   
    1397;  1238.8456;            0   
    1398;  1239.7209;            0   
    1399;  1240.5962;            0   
    1400;  1241.4714;            0   
    1401;  1242.3467;            1   
    1402;  1243.2220;            0   
    1403;  1244.0973;            1   
    1404;  1244.9725;            0   
    1405;  1245.8478;            1   
    1406;  1246.7231;            1   
    1407;  1247.5984;            0   
    1408;  1248.4736;            0   
    1409;  1249.3489;            0   
    1410;  1250.2242;            0   
    1411;  1251.0995;            1   
    1412;  1251.9747;            1   
    1413;  1252.8500;            2   
    1414;  1253.7253;            0   
    1415;  1254.6006;            1   
    1416;  1255.4758;            0   
    1417;  1256.3511;            0   
    1418;  1257.2264;            0   
    1419;  1258.1017;            1   
    1420;  1258.9769;            0   
    1421;  1259.8522;            1   
    1422;  1260.7275;            1   
    1423;  1261.6028;            0   
    1424;  1262.4780;            0   
    1425;  1263.3533;            1   
    1426;  1264.2286;            0   
    1427;  1265.1039;            1   
    1428;  1265.9791;            1   
    1429;  1266.8544;            0   
    1430;  1267.7297;            0   
    1431;  1268.6050;            1   
    1432;  1269.4802;            0   
    1433;  1270.3555;            0   
    1434;  1271.2308;            0   
    1435;  1272.1061;            0   
    1436;  1272.9813;            1   
    1437;  1273.8566;            1   
    1438;  1274.7319;            0   
    1439;  1275.6072;            1   
    1440;  1276.4824;            1   
    1441;  1277.3577;            1   
    1442;  1278.2330;            0   
    1443;  1279.1083;            0   
    1444;  1279.9835;            0   
    1445;  1280.8588;            0   
    1446;  1281.7341;            0   
    1447;  1282.6094;            0   
    1448;  1283.4846;            0   
    1449;  1284.3599;            0   
    1450;  1285.2352;            0   
    1451;  1286.1105;            0   
    1452;  1286.9857;            0   
    1453;  1287.8610;            1   
    1454;  1288.7363;            0   
    1455;  1289.6116;            1   
    1456;  1290.4868;            0   
    1457;  1291.3621;            0   
    1458;  1292.2374;            2   
    1459;  1293.1127;            0   
    1460;  1293.9879;            1   
    1461;  1294.8632;            1   
    1462;  1295.7385;            0   
    1463;  1296.6138;            0   
    1464;  1297.4890;            0   
    1465;  1298.3643;            1   
    1466;  1299.2396;            1   
    1467;  1300.1149;            0   
    1468;  1300.9901;            0   
    1469;  1301.8654;            0   
    1470;  1302.7407;            0   
    1471;  1303.6160;            0   
    1472;  1304.4912;            1   
    1473;  1305.3665;            0   
    1474;  1306.2418;            1   
    1475;  1307.1171;            1   
    1476;  1307.9923;            0   
    1477;  1308.8676;            1   
    1478;  1309.7429;            0   
    1479;  1310.6182;            0   
    1480;  1311.4934;            0   
    1481;  1312.3687;            0   
    1482;  1313.2440;            1   
    1483;  1314.1193;            0   
    1484;  1314.9945;            0   
    1485;  1315.8698;            0   
    1486;  1316.7451;            0   
    1487;  1317.6204;            0   
    1488;  1318.4956;            2   
    1489;  1319.3709;            0   
    1490;  1320.2462;            0   
    1491;  1321.1215;            0   
    1492;  1321.9967;            0   
    1493;  1322.8720;            0   
    1494;  1323.7473;            0   
    1495;  1324.6226;            1   
    1496;  1325.4978;            0   
    1497;  1326.3731;            0   
    1498;  1327.2484;            1   
    1499;  1328.1237;            0   
    1500;  1328.9989;            0   
    1501;  1329.8742;            0   
    1502;  1330.7495;            1   
    1503;  1331.6248;            2   
    1504;  1332.5000;            0   
    1505;  1333.3753;            0   
    1506;  1334.2506;            0   
    1507;  1335.1259;            0   
    1508;  1336.0011;            0   
    1509;  1336.8764;            0   
    1510;  1337.7517;            0   
    1511;  1338.6270;            1   
    1512;  1339.5022;            0   
    1513;  1340.3775;            1   
    1514;  1341.2528;            1   
    1515;  1342.1281;            1   
    1516;  1343.0033;            0   
    1517;  1343.8786;            1   
    1518;  1344.7539;            0   
    1519;  1345.6292;            1   
    1520;  1346.5044;            0   
    1521;  1347.3797;            0   
    1522;  1348.2550;            0   
    1523;  1349.1303;            0   
    1524;  1350.0055;            0   
    1525;  1350.8808;            1   
    1526;  1351.7561;            0   
    1527;  1352.6314;            0   
    1528;  1353.5066;            1   
    1529;  1354.3819;            0   
    1530;  1355.2572;            1   
    1531;  1356.1325;            1   
    1532;  1357.0077;            0   
    1533;  1357.8830;            1   
    1534;  1358.7583;            0   
    1535;  1359.6336;            0   
    1536;  1360.5088;            0   
    1537;  1361.3841;            0   
    1538;  1362.2594;            0   
    1539;  1363.1347;            0   
    1540;  1364.0099;            0   
    1541;  1364.8852;            1   
    1542;  1365.7605;            0   
    1543;  1366.6358;            0   
    1544;  1367.5110;            1   
    1545;  1368.3863;            0   
    1546;  1369.2616;            0   
    1547;  1370.1369;            0   
    1548;  1371.0121;            0   
    1549;  1371.8874;            1   
    1550;  1372.7627;            0   
    1551;  1373.6380;            1   
    1552;  1374.5132;            0   
    1553;  1375.3885;            0   
    1554;  1376.2638;            0   
    1555;  1377.1391;            1   
    1556;  1378.0143;            0   
    1557;  1378.8896;            0   
    1558;  1379.7649;            0   
    1559;  1380.6402;            1   
    1560;  1381.5154;            2   
    1561;  1382.3907;            0   
    1562;  1383.2660;            0   
    1563;  1384.1413;            0   
    1564;  1385.0165;            0   
    1565;  1385.8918;            1   
    1566;  1386.7671;            0   
    1567;  1387.6424;            1   
    1568;  1388.5176;            0   
    1569;  1389.3929;            0   
    1570;  1390.2682;            1   
    1571;  1391.1435;            1   
    1572;  1392.0187;            0   
    1573;  1392.8940;            0   
    1574;  1393.7693;            1   
    1575;  1394.6446;            1   
    1576;  1395.5198;            1   
    1577;  1396.3951;            0   
    1578;  1397.2704;            0   
    1579;  1398.1457;            1   
    1580;  1399.0209;            0   
    1581;  1399.8962;            0   
    1582;  1400.7715;            0   
    1583;  1401.6468;            0   
    1584;  1402.5220;            0   
    1585;  1403.3973;            1   
    1586;  1404.2726;            0   
    1587;  1405.1479;            0   
    1588;  1406.0231;            0   
    1589;  1406.8984;            0   
    1590;  1407.7737;            0   
    1591;  1408.6490;            0   
    1592;  1409.5242;            0   
    1593;  1410.3995;            2   
    1594;  1411.2748;            0   
    1595;  1412.1501;            0   
    1596;  1413.0253;            0   
    1597;  1413.9006;            1   
    1598;  1414.7759;            0   
    1599;  1415.6512;            0   
    1600;  1416.5264;            0   
    1601;  1417.4017;            0   
    1602;  1418.2770;            2   
    1603;  1419.1523;            0   
    1604;  1420.0275;            1   
    1605;  1420.9028;            0   
    1606;  1421.7781;            1   
    1607;  1422.6534;            0   
    1608;  1423.5286;            0   
    1609;  1424.4039;            0   
    1610;  1425.2792;            0   
    1611;  1426.1545;            1   
    1612;  1427.0297;            0   
    1613;  1427.9050;            0   
    1614;  1428.7803;            0   
    1615;  1429.6556;            0   
    1616;  1430.5308;            1   
    1617;  1431.4061;            0   
    1618;  1432.2814;            0   
    1619;  1433.1567;            0   
    1620;  1434.0319;            0   
    1621;  1434.9072;            2   
    1622;  1435.7825;            0   
    1623;  1436.6578;            0   
    1624;  1437.5330;            1   
    1625;  1438.4083;            0   
    1626;  1439.2836;            1   
    1627;  1440.1589;            0   
    1628;  1441.0341;            0   
    1629;  1441.9094;            0   
    1630;  1442.7847;            0   
    1631;  1443.6600;            1   
    1632;  1444.5352;            0   
    1633;  1445.4105;            0   
    1634;  1446.2858;            1   
    1635;  1447.1611;            1   
    1636;  1448.0363;            1   
    1637;  1448.9116;            0   
    1638;  1449.7869;            1   
    1639;  1450.6622;            0   
    1640;  1451.5374;            0   
    1641;  1452.4127;            1   
    1642;  1453.2880;            0   
    1643;  1454.1633;            0   
    1644;  1455.0385;            0   
    1645;  1455.9138;            1   
    1646;  1456.7891;            0   
    1647;  1457.6644;            0   
    1648;  1458.5396;            0   
    1649;  1459.4149;            1   
    1650;  1460.2902;            1   
    1651;  1461.1655;            1   
    1652;  1462.0407;            0   
    1653;  1462.9160;            1   
    1654;  1463.7913;            0   
    1655;  1464.6666;            0   
    1656;  1465.5418;            0   
    1657;  1466.4171;            0   
    1658;  1467.2924;            0   
    1659;  1468.1677;            0   
    1660;  1469.0429;            1   
    1661;  1469.9182;            0   
    1662;  1470.7935;            0   
    1663;  1471.6688;            0   
    1664;  1472.5440;            0   
    1665;  1473.4193;            0   
    1666;  1474.2946;            0   
    1667;  1475.1699;            2   
    1668;  1476.0451;            0   
    1669;  1476.9204;            1   
    1670;  1477.7957;            0   
    1671;  1478.6710;            1   
    1672;  1479.5462;            0   
    1673;  1480.4215;            1   
    1674;  1481.2968;            0   
    1675;  1482.1721;            0   
    1676;  1483.0473;            0   
    1677;  1483.9226;            0   
    1678;  1484.7979;            0   
    1679;  1485.6732;            0   
    1680;  1486.5484;            0   
    1681;  1487.4237;            0   
    1682;  1488.2990;            0   
    1683;  1489.1743;            0   
    1684;  1490.0495;            0   
    1685;  1490.9248;            0   
    1686;  1491.8001;            1   
    1687;  1492.6754;            1   
    1688;  1493.5506;            0   
    1689;  1494.4259;            0   
    1690;  1495.3012;            0   
    1691;  1496.1765;            0   
    1692;  1497.0517;            0   
    1693;  1497.9270;            0   
    1694;  1498.8023;            0   
    1695;  1499.6776;            1   
    1696;  1500.5528;            0   
    1697;  1501.4281;            0   
    1698;  1502.3034;            0   
    1699;  1503.1787;            0   
    1700;  1504.0539;            0   
    1701;  1504.9292;            1   
    1702;  1505.8045;            0   
    1703;  1506.6798;            0   
    1704;  1507.5550;            2   
    1705;  1508.4303;            0   
    1706;  1509.3056;            0   
    1707;  1510.1809;            1   
    1708;  1511.0561;            0   
    1709;  1511.9314;            0   
    1710;  1512.8067;            0   
    1711;  1513.6820;            1   
    1712;  1514.5572;            0   
    1713;  1515.4325;            1   
    1714;  1516.3078;            0   
    1715;  1517.1831;            0   
    1716;  1518.0583;            0   
    1717;  1518.9336;            1   
    1718;  1519.8089;            0   
    1719;  1520.6842;            0   
    1720;  1521.5594;            0   
    1721;  1522.4347;            0   
    1722;  1523.3100;            1   
    1723;  1524.1853;            0   
    1724;  1525.0605;            0   
    1725;  1525.9358;            0   
    1726;  1526.8111;            0   
    1727;  1527.6864;            0   
    1728;  1528.5616;            0   
    1729;  1529.4369;            0   
    1730;  1530.3122;            0   
    1731;  1531.1875;            0   
    1732;  1532.0627;            0   
    1733;  1532.9380;            1   
    1734;  1533.8133;            0   
    1735;  1534.6886;            0   
    1736;  1535.5638;            0   
    1737;  1536.4391;            0   
    1738;  1537.3144;            0   
    1739;  1538.1897;            1   
    1740;  1539.0649;            0   
    1741;  1539.9402;            0   
    1742;  1540.8155;            0   
    1743;  1541.6908;            0   
    1744;  1542.5660;            0   
    1745;  1543.4413;            1   
    1746;  1544.3166;            0   
    1747;  1545.1919;            0   
    1748;  1546.0671;            0   
    1749;  1546.9424;            0   
    1750;  1547.8177;            0   
    1751;  1548.6930;            0   
    1752;  1549.5682;            0   
    1753;  1550.4435;            1   
    1754;  1551.3188;            1   
    1755;  1552.1941;            0   
    1756;  1553.0693;            0   
    1757;  1553.9446;            0   
    1758;  1554.8199;            0   
    1759;  1555.6952;            0   
    1760;  1556.5704;            1   
    1761;  1557.4457;            0   
    1762;  1558.3210;            0   
    1763;  1559.1963;            0   
    1764;  1560.0715;            0   
    1765;  1560.9468;            0   
    1766;  1561.8221;            0   
    1767;  1562.6974;            0   
    1768;  1563.5726;            0   
    1769;  1564.4479;            0   
    1770;  1565.3232;            1   
    1771;  1566.1985;            0   
    1772;  1567.0737;            1   
    1773;  1567.9490;            0   
    1774;  1568.8243;            0   
    1775;  1569.6996;            0   
    1776;  1570.5748;            0   
    1777;  1571.4501;            0   
    1778;  1572.3254;            0   
    1779;  1573.2007;            0   
    1780;  1574.0759;            0   
    1781;  1574.9512;            0   
    1782;  1575.8265;            0   
    1783;  1576.7018;            0   
    1784;  1577.5770;            0   
    1785;  1578.4523;            0   
    1786;  1579.3276;            1   
    1787;  1580.2029;            1   
    1788;  1581.0781;            0   
    1789;  1581.9534;            0   
    1790;  1582.8287;            0   
    1791;  1583.7040;            0   
    1792;  1584.5792;            0   
    1793;  1585.4545;            0   
    1794;  1586.3298;            0   
    1795;  1587.2051;            0   
    1796;  1588.0803;            0   
    1797;  1588.9556;            0   
    1798;  1589.8309;            0   
    1799;  1590.7062;            1   
    1800;  1591.5814;            0   
    1801;  1592.4567;            0   
    1802;  1593.3320;            0   
    1803;  1594.2073;            0   
    1804;  1595.0825;            0   
    1805;  1595.9578;            1   
    1806;  1596.8331;            0   
    1807;  1597.7084;            1   
    1808;  1598.5836;            1   
    1809;  1599.4589;            0   
    1810;  1600.3342;            0   
    1811;  1601.2095;            0   
    1812;  1602.0847;            0   
    1813;  1602.9600;            0   
    1814;  1603.8353;            0   
    1815;  1604.7106;            0   
    1816;  1605.5858;            0   
    1817;  1606.4611;            0   
    1818;  1607.3364;            0   
    1819;  1608.2117;            0   
    1820;  1609.0869;            0   
    1821;  1609.9622;            0   
    1822;  1610.8375;            0   
    1823;  1611.7128;            0   
    1824;  1612.5880;            0   
    1825;  1613.4633;            1   
    1826;  1614.3386;            0   
    1827;  1615.2139;            0   
    1828;  1616.0891;            0   
    1829;  1616.9644;            0   
    1830;  1617.8397;            1   
    1831;  1618.7150;            0   
    1832;  1619.5902;            0   
    1833;  1620.4655;            0   
    1834;  1621.3408;            0   
    1835;  1622.2161;            0   
    1836;  1623.0913;            0   
    1837;  1623.9666;            1   
    1838;  1624.8419;            0   
    1839;  1625.7172;            0   
    1840;  1626.5924;            0   
    1841;  1627.4677;            0   
    1842;  1628.3430;            0   
    1843;  1629.2183;            1   
    1844;  1630.0935;            0   
    1845;  1630.9688;            0   
    1846;  1631.8441;            0   
    1847;  1632.7194;            0   
    1848;  1633.5946;            0   
    1849;  1634.4699;            0   
    1850;  1635.3452;            0   
    1851;  1636.2205;            0   
    1852;  1637.0957;            0   
    1853;  1637.9710;            0   
    1854;  1638.8463;            0   
    1855;  1639.7216;            2   
    1856;  1640.5968;            0   
    1857;  1641.4721;            0   
    1858;  1642.3474;            0   
    1859;  1643.2227;            0   
    1860;  1644.0979;            1   
    1861;  1644.9732;            0   
    1862;  1645.8485;            0   
    1863;  1646.7238;            0   
    1864;  1647.5990;            0   
    1865;  1648.4743;            1   
    1866;  1649.3496;            0   
    1867;  1650.2249;            0   
    1868;  1651.1001;            0   
    1869;  1651.9754;            0   
    1870;  1652.8507;            0   
    1871;  1653.7260;            0   
    1872;  1654.6012;            0   
    1873;  1655.4765;            0   
    1874;  1656.3518;            0   
    1875;  1657.2271;            0   
    1876;  1658.1023;            1   
    1877;  1658.9776;            0   
    1878;  1659.8529;            0   
    1879;  1660.7282;            0   
    1880;  1661.6034;            0   
    1881;  1662.4787;            0   
    1882;  1663.3540;            0   
    1883;  1664.2293;            0   
    1884;  1665.1045;            0   
    1885;  1665.9798;            0   
    1886;  1666.8551;            0   
    1887;  1667.7304;            1   
    1888;  1668.6056;            0   
    1889;  1669.4809;            0   
    1890;  1670.3562;            0   
    1891;  1671.2315;            0   
    1892;  1672.1067;            0   
    1893;  1672.9820;            0   
    1894;  1673.8573;            0   
    1895;  1674.7326;            0   
    1896;  1675.6078;            0   
    1897;  1676.4831;            0   
    1898;  1677.3584;            0   
    1899;  1678.2337;            0   
    1900;  1679.1089;            0   
    1901;  1679.9842;            1   
    1902;  1680.8595;            0   
    1903;  1681.7348;            1   
    1904;  1682.6100;            0   
    1905;  1683.4853;            0   
    1906;  1684.3606;            0   
    1907;  1685.2359;            0   
    1908;  1686.1111;            0   
    1909;  1686.9864;            0   
    1910;  1687.8617;            0   
    1911;  1688.7370;            0   
    1912;  1689.6122;            0   
    1913;  1690.4875;            0   
    1914;  1691.3628;            0   
    1915;  1692.2381;            0   
    1916;  1693.1133;            0   
    1917;  1693.9886;            0   
    1918;  1694.8639;            1   
    1919;  1695.7392;            0   
    1920;  1696.6144;            0   
    1921;  1697.4897;            0   
    1922;  1698.3650;            0   
    1923;  1699.2403;            0   
    1924;  1700.1155;            0   
    1925;  1700.9908;            0   
    1926;  1701.8661;            0   
    1927;  1702.7414;            0   
    1928;  1703.6166;            0   
    1929;  1704.4919;            0   
    1930;  1705.3672;            0   
    1931;  1706.2425;            0   
    1932;  1707.1177;            0   
    1933;  1707.9930;            1   
    1934;  1708.8683;            0   
    1935;  1709.7436;            0   
    1936;  1710.6188;            0   
    1937;  1711.4941;            0   
    1938;  1712.3694;            0   
    1939;  1713.2447;            0   
    1940;  1714.1199;            0   
    1941;  1714.9952;            0   
    1942;  1715.8705;            0   
    1943;  1716.7458;            0   
    1944;  1717.6210;            0   
    1945;  1718.4963;            0   
    1946;  1719.3716;            0   
    1947;  1720.2469;            0   
    1948;  1721.1221;            0   
    1949;  1721.9974;            0   
    1950;  1722.8727;            0   
    1951;  1723.7480;            0   
    1952;  1724.6232;            0   
    1953;  1725.4985;            0   
    1954;  1726.3738;            0   
    1955;  1727.2491;            0   
    1956;  1728.1243;            0   
    1957;  1728.9996;            0   
    1958;  1729.8749;            0   
    1959;  1730.7502;            0   
    1960;  1731.6254;            0   
    1961;  1732.5007;            0   
    1962;  1733.3760;            0   
    1963;  1734.2513;            0   
    1964;  1735.1265;            0   
    1965;  1736.0018;            0   
    1966;  1736.8771;            0   
    1967;  1737.7524;            0   
    1968;  1738.6276;            0   
    1969;  1739.5029;            0   
    1970;  1740.3782;            0   
    1971;  1741.2535;            0   
    1972;  1742.1287;            0   
    1973;  1743.0040;            0   
    1974;  1743.8793;            0   
    1975;  1744.7546;            0   
    1976;  1745.6298;            0   
    1977;  1746.5051;            0   
    1978;  1747.3804;            0   
    1979;  1748.2557;            0   
    1980;  1749.1309;            0   
    1981;  1750.0062;            0   
    1982;  1750.8815;            0   
    1983;  1751.7568;            0   
    1984;  1752.6320;            0   
    1985;  1753.5073;            0   
    1986;  1754.3826;            0   
    1987;  1755.2579;            0   
    1988;  1756.1331;            0   
    1989;  1757.0084;            0   
    1990;  1757.8837;            0   
    1991;  1758.7590;            0   
    1992;  1759.6342;            0   
    1993;  1760.5095;            0   
    1994;  1761.3848;            0   
    1995;  1762.2601;            0   
    1996;  1763.1353;            0   
    1997;  1764.0106;            0   
    1998;  1764.8859;            0   
    1999;  1765.7612;            0   
    2000;  1766.6364;            0   
    2001;  1767.5117;            0   
    2002;  1768.3870;            0   
    2003;  1769.2623;            0   
    2004;  1770.1375;            0   
    2005;  1771.0128;            0   
    2006;  1771.8881;            0   
    2007;  1772.7634;            0   
    2008;  1773.6386;            0   
    2009;  1774.5139;            0   
    2010;  1775.3892;            0   
    2011;  1776.2645;            0   
    2012;  1777.1397;            0   
    2013;  1778.0150;            0   
    2014;  1778.8903;            0   
    2015;  1779.7656;            0   
    2016;  1780.6408;            0   
    2017;  1781.5161;            0   
    2018;  1782.3914;            0   
    2019;  1783.2667;            0   
    2020;  1784.1419;            0   
    2021;  1785.0172;            0   
    2022;  1785.8925;            0   
    2023;  1786.7678;            0   
    2024;  1787.6430;            0   
    2025;  1788.5183;            0   
    2026;  1789.3936;            0   
    2027;  1790.2689;            0   
    2028;  1791.1441;            0   
    2029;  1792.0194;            0   
    2030;  1792.8947;            0   
    2031;  1793.7700;            0   
    2032;  1794.6452;            0   
    2033;  1795.5205;            0   
    2034;  1796.3958;            0   
    2035;  1797.2711;            0   
    2036;  1798.1463;            0   
    2037;  1799.0216;            0   
    2038;  1799.8969;            0   
    2039;  1800.7722;            0   
    2040;  1801.6474;            0   
    2041;  1802.5227;            0   
    2042;  1803.3980;            0   
    2043;  1804.2733;            0   
    2044;  1805.1485;            0   
    2045;  1806.0238;            0   
    2046;  1806.8991;            0   
    2047;  1807.7744;            0   
    2048;  1808.6496;            0   
ROI Nummer; Anfangskanal; Endkanal; Anfangsenergie keV ; Endenergie keV; Nettoimpulse; Bruttoimpulse; Untergrundimpulse
In den Daten wurden keine Linien gefunden
ROI Nummer; prozentualer Fehler der Lage; Lage keV; FWHM keV; FWTM keV; FWTM/FWHM Verhltnis; H/L Verhltnis
No Peak records found in data.
Name; Energie keV; Flags; Aktivitt uCi/Unit; Aktivittsfehler %; NWG uCi/Unit; MDA Error %
Es wurden keine Nuklidergebnisse gefunden.
Name; Erwartete Endergie keV; Gemessene Energie keV; Differenz von erwarteter keV; FWHM; Flags; Aktivitt uCi/Unit; Aktivittsfehler %
Es wurden keine Nuklidergebnisse gefunden.
