Kanal;   Energie(keV); Impulse
       1;    16.9617;          214   
       2;    17.8370;          242   
       3;    18.7122;          202   
       4;    19.5875;          196   
       5;    20.4628;          213   
       6;    21.3381;          189   
       7;    22.2133;          183   
       8;    23.0886;          217   
       9;    23.9639;          195   
      10;    24.8392;          178   
      11;    25.7144;          177   
      12;    26.5897;          156   
      13;    27.4650;          160   
      14;    28.3403;          171   
      15;    29.2155;          180   
      16;    30.0908;          178   
      17;    30.9661;          171   
      18;    31.8414;          154   
      19;    32.7166;          143   
      20;    33.5919;          168   
      21;    34.4672;          164   
      22;    35.3425;          164   
      23;    36.2177;          181   
      24;    37.0930;          190   
      25;    37.9683;          146   
      26;    38.8436;          163   
      27;    39.7188;          170   
      28;    40.5941;          160   
      29;    41.4694;          142   
      30;    42.3447;          162   
      31;    43.2199;          169   
      32;    44.0952;          156   
      33;    44.9705;          165   
      34;    45.8458;          156   
      35;    46.7210;          146   
      36;    47.5963;          150   
      37;    48.4716;          145   
      38;    49.3469;          126   
      39;    50.2221;          126   
      40;    51.0974;          145   
      41;    51.9727;          137   
      42;    52.8480;          153   
      43;    53.7232;          144   
      44;    54.5985;          140   
      45;    55.4738;          145   
      46;    56.3491;          153   
      47;    57.2243;          141   
      48;    58.0996;          144   
      49;    58.9749;          146   
      50;    59.8502;          149   
      51;    60.7254;          139   
      52;    61.6007;          172   
      53;    62.4760;          166   
      54;    63.3513;          152   
      55;    64.2265;          148   
      56;    65.1018;          156   
      57;    65.9771;          152   
      58;    66.8524;          172   
      59;    67.7276;          134   
      60;    68.6029;          175   
      61;    69.4782;          157   
      62;    70.3535;          172   
      63;    71.2287;          160   
      64;    72.1040;          153   
      65;    72.9793;          179   
      66;    73.8546;          182   
      67;    74.7298;          177   
      68;    75.6051;          221   
      69;    76.4804;          226   
      70;    77.3557;          219   
      71;    78.2309;          278   
      72;    79.1062;          181   
      73;    79.9815;          190   
      74;    80.8568;          188   
      75;    81.7320;          164   
      76;    82.6073;          179   
      77;    83.4826;          170   
      78;    84.3579;          210   
      79;    85.2331;          178   
      80;    86.1084;          204   
      81;    86.9837;          205   
      82;    87.8590;          237   
      83;    88.7342;          222   
      84;    89.6095;          207   
      85;    90.4848;          197   
      86;    91.3601;          206   
      87;    92.2353;          176   
      88;    93.1106;          180   
      89;    93.9859;          173   
      90;    94.8612;          210   
      91;    95.7364;          191   
      92;    96.6117;          218   
      93;    97.4870;          183   
      94;    98.3623;          190   
      95;    99.2375;          195   
      96;   100.1128;          214   
      97;   100.9881;          176   
      98;   101.8634;          189   
      99;   102.7386;          204   
     100;   103.6139;          185   
     101;   104.4892;          198   
     102;   105.3645;          198   
     103;   106.2397;          200   
     104;   107.1150;          212   
     105;   107.9903;          206   
     106;   108.8656;          198   
     107;   109.7408;          197   
     108;   110.6161;          213   
     109;   111.4914;          218   
     110;   112.3667;          188   
     111;   113.2419;          192   
     112;   114.1172;          201   
     113;   114.9925;          208   
     114;   115.8678;          202   
     115;   116.7430;          194   
     116;   117.6183;          197   
     117;   118.4936;          208   
     118;   119.3689;          195   
     119;   120.2441;          176   
     120;   121.1194;          183   
     121;   121.9947;          206   
     122;   122.8700;          214   
     123;   123.7452;          216   
     124;   124.6205;          200   
     125;   125.4958;          196   
     126;   126.3711;          182   
     127;   127.2463;          198   
     128;   128.1216;          192   
     129;   128.9969;          195   
     130;   129.8722;          178   
     131;   130.7474;          184   
     132;   131.6227;          214   
     133;   132.4980;          211   
     134;   133.3733;          191   
     135;   134.2485;          194   
     136;   135.1238;          177   
     137;   135.9991;          210   
     138;   136.8744;          186   
     139;   137.7496;          196   
     140;   138.6249;          195   
     141;   139.5002;          203   
     142;   140.3755;          177   
     143;   141.2507;          188   
     144;   142.1260;          197   
     145;   143.0013;          227   
     146;   143.8766;          188   
     147;   144.7518;          192   
     148;   145.6271;          192   
     149;   146.5024;          170   
     150;   147.3777;          191   
     151;   148.2529;          194   
     152;   149.1282;          200   
     153;   150.0035;          182   
     154;   150.8788;          183   
     155;   151.7540;          174   
     156;   152.6293;          166   
     157;   153.5046;          186   
     158;   154.3799;          203   
     159;   155.2551;          170   
     160;   156.1304;          163   
     161;   157.0057;          195   
     162;   157.8810;          195   
     163;   158.7562;          198   
     164;   159.6315;          227   
     165;   160.5068;          176   
     166;   161.3821;          178   
     167;   162.2573;          147   
     168;   163.1326;          191   
     169;   164.0079;          148   
     170;   164.8832;          177   
     171;   165.7584;          178   
     172;   166.6337;          183   
     173;   167.5090;          173   
     174;   168.3843;          178   
     175;   169.2595;          176   
     176;   170.1348;          167   
     177;   171.0101;          165   
     178;   171.8854;          176   
     179;   172.7606;          176   
     180;   173.6359;          194   
     181;   174.5112;          181   
     182;   175.3865;          187   
     183;   176.2617;          191   
     184;   177.1370;          176   
     185;   178.0123;          203   
     186;   178.8876;          178   
     187;   179.7628;          186   
     188;   180.6381;          180   
     189;   181.5134;          194   
     190;   182.3887;          193   
     191;   183.2639;          184   
     192;   184.1392;          172   
     193;   185.0145;          165   
     194;   185.8898;          194   
     195;   186.7650;          164   
     196;   187.6403;          182   
     197;   188.5156;          172   
     198;   189.3909;          203   
     199;   190.2661;          190   
     200;   191.1414;          192   
     201;   192.0167;          181   
     202;   192.8920;          170   
     203;   193.7672;          180   
     204;   194.6425;          161   
     205;   195.5178;          190   
     206;   196.3931;          185   
     207;   197.2683;          179   
     208;   198.1436;          168   
     209;   199.0189;          178   
     210;   199.8942;          169   
     211;   200.7694;          160   
     212;   201.6447;          165   
     213;   202.5200;          179   
     214;   203.3953;          178   
     215;   204.2705;          187   
     216;   205.1458;          159   
     217;   206.0211;          188   
     218;   206.8964;          155   
     219;   207.7716;          155   
     220;   208.6469;          179   
     221;   209.5222;          170   
     222;   210.3975;          184   
     223;   211.2727;          192   
     224;   212.1480;          173   
     225;   213.0233;          192   
     226;   213.8986;          161   
     227;   214.7738;          163   
     228;   215.6491;          166   
     229;   216.5244;          159   
     230;   217.3997;          149   
     231;   218.2749;          170   
     232;   219.1502;          147   
     233;   220.0255;          196   
     234;   220.9008;          163   
     235;   221.7760;          179   
     236;   222.6513;          172   
     237;   223.5266;          166   
     238;   224.4019;          159   
     239;   225.2771;          164   
     240;   226.1524;          160   
     241;   227.0277;          184   
     242;   227.9030;          151   
     243;   228.7782;          153   
     244;   229.6535;          167   
     245;   230.5288;          155   
     246;   231.4041;          162   
     247;   232.2793;          182   
     248;   233.1546;          152   
     249;   234.0299;          151   
     250;   234.9052;          175   
     251;   235.7804;          181   
     252;   236.6557;          144   
     253;   237.5310;          153   
     254;   238.4063;          161   
     255;   239.2815;          169   
     256;   240.1568;          147   
     257;   241.0321;          161   
     258;   241.9074;          170   
     259;   242.7826;          226   
     260;   243.6579;          192   
     261;   244.5332;          181   
     262;   245.4085;          187   
     263;   246.2837;          170   
     264;   247.1590;          162   
     265;   248.0343;          162   
     266;   248.9096;          159   
     267;   249.7848;          154   
     268;   250.6601;          136   
     269;   251.5354;          168   
     270;   252.4107;          162   
     271;   253.2859;          147   
     272;   254.1612;          154   
     273;   255.0365;          139   
     274;   255.9118;          157   
     275;   256.7870;          140   
     276;   257.6623;          180   
     277;   258.5376;          166   
     278;   259.4129;          132   
     279;   260.2881;          168   
     280;   261.1634;          153   
     281;   262.0387;          149   
     282;   262.9140;          158   
     283;   263.7892;          157   
     284;   264.6645;          150   
     285;   265.5398;          154   
     286;   266.4151;          110   
     287;   267.2903;          152   
     288;   268.1656;          177   
     289;   269.0409;          143   
     290;   269.9162;          139   
     291;   270.7914;          161   
     292;   271.6667;          152   
     293;   272.5420;          161   
     294;   273.4173;          151   
     295;   274.2925;          135   
     296;   275.1678;          148   
     297;   276.0431;          154   
     298;   276.9184;          141   
     299;   277.7936;          148   
     300;   278.6689;          138   
     301;   279.5442;          156   
     302;   280.4195;          173   
     303;   281.2947;          153   
     304;   282.1700;          149   
     305;   283.0453;          132   
     306;   283.9206;          141   
     307;   284.7958;          161   
     308;   285.6711;          158   
     309;   286.5464;          153   
     310;   287.4217;          142   
     311;   288.2969;          154   
     312;   289.1722;          168   
     313;   290.0475;          143   
     314;   290.9228;          140   
     315;   291.7980;          162   
     316;   292.6733;          144   
     317;   293.5486;          148   
     318;   294.4239;          158   
     319;   295.2991;          141   
     320;   296.1744;          169   
     321;   297.0497;          145   
     322;   297.9250;          155   
     323;   298.8002;          158   
     324;   299.6755;          187   
     325;   300.5508;          154   
     326;   301.4261;          179   
     327;   302.3013;          161   
     328;   303.1766;          171   
     329;   304.0519;          154   
     330;   304.9272;          153   
     331;   305.8024;          145   
     332;   306.6777;          142   
     333;   307.5530;          139   
     334;   308.4283;          149   
     335;   309.3035;          163   
     336;   310.1788;          150   
     337;   311.0541;          135   
     338;   311.9294;          167   
     339;   312.8046;          161   
     340;   313.6799;          176   
     341;   314.5552;          153   
     342;   315.4305;          167   
     343;   316.3057;          151   
     344;   317.1810;          143   
     345;   318.0563;          140   
     346;   318.9316;          163   
     347;   319.8068;          151   
     348;   320.6821;          188   
     349;   321.5574;          166   
     350;   322.4327;          167   
     351;   323.3079;          166   
     352;   324.1832;          136   
     353;   325.0585;          157   
     354;   325.9338;          186   
     355;   326.8090;          171   
     356;   327.6843;          150   
     357;   328.5596;          142   
     358;   329.4349;          176   
     359;   330.3101;          176   
     360;   331.1854;          138   
     361;   332.0607;          168   
     362;   332.9360;          162   
     363;   333.8112;          179   
     364;   334.6865;          162   
     365;   335.5618;          154   
     366;   336.4371;          163   
     367;   337.3123;          159   
     368;   338.1876;          145   
     369;   339.0629;          168   
     370;   339.9382;          141   
     371;   340.8134;          170   
     372;   341.6887;          149   
     373;   342.5640;          159   
     374;   343.4393;          148   
     375;   344.3145;          153   
     376;   345.1898;          138   
     377;   346.0651;          129   
     378;   346.9404;          137   
     379;   347.8156;          141   
     380;   348.6909;          121   
     381;   349.5662;          110   
     382;   350.4415;          110   
     383;   351.3167;          102   
     384;   352.1920;          122   
     385;   353.0673;          101   
     386;   353.9426;           99   
     387;   354.8178;          102   
     388;   355.6931;          116   
     389;   356.5684;          113   
     390;   357.4437;          153   
     391;   358.3189;          135   
     392;   359.1942;          103   
     393;   360.0695;          107   
     394;   360.9448;           98   
     395;   361.8200;           95   
     396;   362.6953;           86   
     397;   363.5706;           99   
     398;   364.4459;           86   
     399;   365.3211;          107   
     400;   366.1964;          104   
     401;   367.0717;           80   
     402;   367.9470;           78   
     403;   368.8222;           84   
     404;   369.6975;           78   
     405;   370.5728;           73   
     406;   371.4481;           84   
     407;   372.3233;           90   
     408;   373.1986;           75   
     409;   374.0739;           81   
     410;   374.9492;           79   
     411;   375.8244;           92   
     412;   376.6997;           73   
     413;   377.5750;           66   
     414;   378.4503;           92   
     415;   379.3255;           83   
     416;   380.2008;           80   
     417;   381.0761;           69   
     418;   381.9514;           64   
     419;   382.8266;           77   
     420;   383.7019;           72   
     421;   384.5772;           92   
     422;   385.4525;           80   
     423;   386.3277;           70   
     424;   387.2030;           86   
     425;   388.0783;           66   
     426;   388.9536;           72   
     427;   389.8288;           87   
     428;   390.7041;           76   
     429;   391.5794;           74   
     430;   392.4547;           78   
     431;   393.3299;           58   
     432;   394.2052;           70   
     433;   395.0805;           74   
     434;   395.9558;           67   
     435;   396.8310;           80   
     436;   397.7063;           71   
     437;   398.5816;           68   
     438;   399.4569;           65   
     439;   400.3321;           80   
     440;   401.2074;           70   
     441;   402.0827;           68   
     442;   402.9580;           68   
     443;   403.8332;           48   
     444;   404.7085;           53   
     445;   405.5838;           69   
     446;   406.4591;           60   
     447;   407.3343;           52   
     448;   408.2096;           62   
     449;   409.0849;           62   
     450;   409.9602;           66   
     451;   410.8354;           63   
     452;   411.7107;           57   
     453;   412.5860;           58   
     454;   413.4613;           52   
     455;   414.3365;           62   
     456;   415.2118;           54   
     457;   416.0871;           52   
     458;   416.9624;           50   
     459;   417.8376;           60   
     460;   418.7129;           62   
     461;   419.5882;           53   
     462;   420.4635;           43   
     463;   421.3387;           53   
     464;   422.2140;           57   
     465;   423.0893;           62   
     466;   423.9646;           64   
     467;   424.8398;           58   
     468;   425.7151;           39   
     469;   426.5904;           57   
     470;   427.4657;           50   
     471;   428.3409;           56   
     472;   429.2162;           49   
     473;   430.0915;           63   
     474;   430.9668;           62   
     475;   431.8420;           58   
     476;   432.7173;           58   
     477;   433.5926;           51   
     478;   434.4679;           60   
     479;   435.3431;           47   
     480;   436.2184;           40   
     481;   437.0937;           42   
     482;   437.9690;           42   
     483;   438.8442;           48   
     484;   439.7195;           57   
     485;   440.5948;           57   
     486;   441.4701;           57   
     487;   442.3453;           54   
     488;   443.2206;           38   
     489;   444.0959;           53   
     490;   444.9712;           57   
     491;   445.8464;           48   
     492;   446.7217;           41   
     493;   447.5970;           53   
     494;   448.4723;           46   
     495;   449.3475;           58   
     496;   450.2228;           45   
     497;   451.0981;           56   
     498;   451.9734;           45   
     499;   452.8486;           58   
     500;   453.7239;           63   
     501;   454.5992;           38   
     502;   455.4745;           51   
     503;   456.3497;           38   
     504;   457.2250;           38   
     505;   458.1003;           51   
     506;   458.9756;           44   
     507;   459.8508;           49   
     508;   460.7261;           45   
     509;   461.6014;           54   
     510;   462.4767;           60   
     511;   463.3519;           48   
     512;   464.2272;           46   
     513;   465.1025;           43   
     514;   465.9778;           42   
     515;   466.8530;           47   
     516;   467.7283;           40   
     517;   468.6036;           59   
     518;   469.4789;           49   
     519;   470.3541;           46   
     520;   471.2294;           52   
     521;   472.1047;           39   
     522;   472.9800;           48   
     523;   473.8552;           48   
     524;   474.7305;           37   
     525;   475.6058;           44   
     526;   476.4811;           56   
     527;   477.3563;           36   
     528;   478.2316;           52   
     529;   479.1069;           34   
     530;   479.9822;           40   
     531;   480.8574;           43   
     532;   481.7327;           44   
     533;   482.6080;           45   
     534;   483.4833;           45   
     535;   484.3585;           49   
     536;   485.2338;           53   
     537;   486.1091;           45   
     538;   486.9844;           39   
     539;   487.8596;           48   
     540;   488.7349;           55   
     541;   489.6102;           52   
     542;   490.4855;           42   
     543;   491.3607;           54   
     544;   492.2360;           56   
     545;   493.1113;           49   
     546;   493.9866;           45   
     547;   494.8618;           42   
     548;   495.7371;           51   
     549;   496.6124;           38   
     550;   497.4877;           51   
     551;   498.3629;           45   
     552;   499.2382;           47   
     553;   500.1135;           54   
     554;   500.9888;           41   
     555;   501.8640;           50   
     556;   502.7393;           45   
     557;   503.6146;           49   
     558;   504.4899;           44   
     559;   505.3651;           46   
     560;   506.2404;           32   
     561;   507.1157;           47   
     562;   507.9910;           49   
     563;   508.8662;           46   
     564;   509.7415;           54   
     565;   510.6168;           39   
     566;   511.4921;           48   
     567;   512.3673;           66   
     568;   513.2426;           60   
     569;   514.1179;           89   
     570;   514.9932;          212   
     571;   515.8684;          726   
     572;   516.7437;         1925   
     573;   517.6190;         3632   
     574;   518.4943;         4318   
     575;   519.3695;         3180   
     576;   520.2448;         1477   
     577;   521.1201;          576   
     578;   521.9954;          161   
     579;   522.8706;           70   
     580;   523.7459;           64   
     581;   524.6212;           40   
     582;   525.4965;           38   
     583;   526.3717;           34   
     584;   527.2470;           29   
     585;   528.1223;           27   
     586;   528.9976;           33   
     587;   529.8728;           25   
     588;   530.7481;           32   
     589;   531.6234;           26   
     590;   532.4987;           32   
     591;   533.3739;           27   
     592;   534.2492;           33   
     593;   535.1245;           34   
     594;   535.9998;           25   
     595;   536.8750;           32   
     596;   537.7503;           27   
     597;   538.6256;           23   
     598;   539.5009;           26   
     599;   540.3761;           19   
     600;   541.2514;           27   
     601;   542.1267;           43   
     602;   543.0020;           27   
     603;   543.8772;           28   
     604;   544.7525;           23   
     605;   545.6278;           34   
     606;   546.5031;           22   
     607;   547.3783;           21   
     608;   548.2536;           28   
     609;   549.1289;           35   
     610;   550.0042;           23   
     611;   550.8794;           28   
     612;   551.7547;           26   
     613;   552.6300;           33   
     614;   553.5053;           19   
     615;   554.3805;           36   
     616;   555.2558;           27   
     617;   556.1311;           25   
     618;   557.0064;           15   
     619;   557.8816;           25   
     620;   558.7569;           30   
     621;   559.6322;           25   
     622;   560.5075;           23   
     623;   561.3827;           31   
     624;   562.2580;           32   
     625;   563.1333;           30   
     626;   564.0086;           22   
     627;   564.8838;           23   
     628;   565.7591;           19   
     629;   566.6344;           21   
     630;   567.5097;           18   
     631;   568.3849;           25   
     632;   569.2602;           21   
     633;   570.1355;           31   
     634;   571.0108;           30   
     635;   571.8860;           20   
     636;   572.7613;           26   
     637;   573.6366;           24   
     638;   574.5119;           34   
     639;   575.3871;           21   
     640;   576.2624;           29   
     641;   577.1377;           21   
     642;   578.0130;           32   
     643;   578.8882;           18   
     644;   579.7635;           20   
     645;   580.6388;           26   
     646;   581.5141;           35   
     647;   582.3893;           28   
     648;   583.2646;           21   
     649;   584.1399;           19   
     650;   585.0152;           24   
     651;   585.8904;           26   
     652;   586.7657;           30   
     653;   587.6410;           35   
     654;   588.5163;           25   
     655;   589.3915;           39   
     656;   590.2668;           30   
     657;   591.1421;           50   
     658;   592.0174;           40   
     659;   592.8926;           25   
     660;   593.7679;           24   
     661;   594.6432;           34   
     662;   595.5185;           24   
     663;   596.3937;           25   
     664;   597.2690;           34   
     665;   598.1443;           34   
     666;   599.0196;           25   
     667;   599.8948;           21   
     668;   600.7701;           28   
     669;   601.6454;           25   
     670;   602.5207;           27   
     671;   603.3959;           28   
     672;   604.2712;           26   
     673;   605.1465;           23   
     674;   606.0218;           23   
     675;   606.8970;           25   
     676;   607.7723;           13   
     677;   608.6476;           26   
     678;   609.5229;           20   
     679;   610.3981;           33   
     680;   611.2734;           24   
     681;   612.1487;           21   
     682;   613.0240;           31   
     683;   613.8992;           20   
     684;   614.7745;           29   
     685;   615.6498;           26   
     686;   616.5251;           47   
     687;   617.4003;           52   
     688;   618.2756;           53   
     689;   619.1509;           27   
     690;   620.0262;           25   
     691;   620.9014;           34   
     692;   621.7767;           24   
     693;   622.6520;           28   
     694;   623.5273;           22   
     695;   624.4025;           29   
     696;   625.2778;           23   
     697;   626.1531;           19   
     698;   627.0284;           27   
     699;   627.9036;           28   
     700;   628.7789;           22   
     701;   629.6542;           18   
     702;   630.5295;           16   
     703;   631.4047;           26   
     704;   632.2800;           24   
     705;   633.1553;           31   
     706;   634.0306;           23   
     707;   634.9058;           28   
     708;   635.7811;           19   
     709;   636.6564;           23   
     710;   637.5317;           28   
     711;   638.4069;           38   
     712;   639.2822;           24   
     713;   640.1575;           17   
     714;   641.0328;           21   
     715;   641.9080;           20   
     716;   642.7833;           19   
     717;   643.6586;           38   
     718;   644.5339;           21   
     719;   645.4091;           25   
     720;   646.2844;           28   
     721;   647.1597;           23   
     722;   648.0350;           22   
     723;   648.9102;           23   
     724;   649.7855;           20   
     725;   650.6608;           25   
     726;   651.5361;           27   
     727;   652.4113;           24   
     728;   653.2866;           20   
     729;   654.1619;           27   
     730;   655.0372;           20   
     731;   655.9124;           33   
     732;   656.7877;           27   
     733;   657.6630;           18   
     734;   658.5383;           15   
     735;   659.4135;           26   
     736;   660.2888;           17   
     737;   661.1641;           17   
     738;   662.0394;           15   
     739;   662.9146;           23   
     740;   663.7899;           22   
     741;   664.6652;           19   
     742;   665.5405;           27   
     743;   666.4157;           32   
     744;   667.2910;           26   
     745;   668.1663;           29   
     746;   669.0416;           16   
     747;   669.9168;           24   
     748;   670.7921;           23   
     749;   671.6674;           27   
     750;   672.5427;           24   
     751;   673.4179;           22   
     752;   674.2932;           18   
     753;   675.1685;           25   
     754;   676.0438;           35   
     755;   676.9190;           26   
     756;   677.7943;           28   
     757;   678.6696;           29   
     758;   679.5449;           19   
     759;   680.4201;           20   
     760;   681.2954;           27   
     761;   682.1707;           25   
     762;   683.0460;           31   
     763;   683.9212;           27   
     764;   684.7965;           18   
     765;   685.6718;           23   
     766;   686.5471;           24   
     767;   687.4223;           40   
     768;   688.2976;           28   
     769;   689.1729;           26   
     770;   690.0482;           20   
     771;   690.9234;           17   
     772;   691.7987;           34   
     773;   692.6740;           29   
     774;   693.5493;           17   
     775;   694.4245;           20   
     776;   695.2998;           27   
     777;   696.1751;           24   
     778;   697.0504;           19   
     779;   697.9256;           22   
     780;   698.8009;           23   
     781;   699.6762;           23   
     782;   700.5515;           22   
     783;   701.4267;           28   
     784;   702.3020;           17   
     785;   703.1773;           21   
     786;   704.0526;           19   
     787;   704.9278;           24   
     788;   705.8031;           22   
     789;   706.6784;           28   
     790;   707.5537;           21   
     791;   708.4289;           18   
     792;   709.3042;           16   
     793;   710.1795;           25   
     794;   711.0548;           27   
     795;   711.9300;           33   
     796;   712.8053;           20   
     797;   713.6806;           30   
     798;   714.5559;           25   
     799;   715.4311;           13   
     800;   716.3064;           25   
     801;   717.1817;           30   
     802;   718.0570;           18   
     803;   718.9322;           23   
     804;   719.8075;           28   
     805;   720.6828;           29   
     806;   721.5581;           28   
     807;   722.4333;           34   
     808;   723.3086;           20   
     809;   724.1839;           16   
     810;   725.0592;           16   
     811;   725.9344;           23   
     812;   726.8097;           10   
     813;   727.6850;           13   
     814;   728.5603;           17   
     815;   729.4355;           27   
     816;   730.3108;           37   
     817;   731.1861;           18   
     818;   732.0614;           19   
     819;   732.9366;           26   
     820;   733.8119;           22   
     821;   734.6872;           30   
     822;   735.5625;           22   
     823;   736.4377;           37   
     824;   737.3130;           39   
     825;   738.1883;           23   
     826;   739.0636;           32   
     827;   739.9388;           25   
     828;   740.8141;           28   
     829;   741.6894;           23   
     830;   742.5647;           10   
     831;   743.4399;           23   
     832;   744.3152;           17   
     833;   745.1905;           21   
     834;   746.0658;           25   
     835;   746.9410;           29   
     836;   747.8163;           27   
     837;   748.6916;           21   
     838;   749.5669;           29   
     839;   750.4421;           24   
     840;   751.3174;           20   
     841;   752.1927;           26   
     842;   753.0680;           20   
     843;   753.9432;           22   
     844;   754.8185;           24   
     845;   755.6938;           22   
     846;   756.5691;           16   
     847;   757.4443;           19   
     848;   758.3196;           22   
     849;   759.1949;           20   
     850;   760.0702;           27   
     851;   760.9454;           24   
     852;   761.8207;           33   
     853;   762.6960;           20   
     854;   763.5713;           25   
     855;   764.4465;           18   
     856;   765.3218;           23   
     857;   766.1971;           20   
     858;   767.0724;           26   
     859;   767.9476;           12   
     860;   768.8229;           20   
     861;   769.6982;           23   
     862;   770.5735;           11   
     863;   771.4487;           21   
     864;   772.3240;           24   
     865;   773.1993;           28   
     866;   774.0746;           26   
     867;   774.9498;           21   
     868;   775.8251;           25   
     869;   776.7004;           20   
     870;   777.5757;           25   
     871;   778.4509;           23   
     872;   779.3262;           26   
     873;   780.2015;           23   
     874;   781.0768;           16   
     875;   781.9520;           27   
     876;   782.8273;           20   
     877;   783.7026;           27   
     878;   784.5779;           24   
     879;   785.4531;           26   
     880;   786.3284;           13   
     881;   787.2037;           26   
     882;   788.0790;           23   
     883;   788.9542;           26   
     884;   789.8295;           33   
     885;   790.7048;           24   
     886;   791.5801;           23   
     887;   792.4553;           19   
     888;   793.3306;           19   
     889;   794.2059;           28   
     890;   795.0812;           20   
     891;   795.9564;           28   
     892;   796.8317;           19   
     893;   797.7070;           26   
     894;   798.5823;           25   
     895;   799.4575;           23   
     896;   800.3328;           28   
     897;   801.2081;           19   
     898;   802.0834;           28   
     899;   802.9586;           22   
     900;   803.8339;           26   
     901;   804.7092;           31   
     902;   805.5845;           19   
     903;   806.4597;           28   
     904;   807.3350;           19   
     905;   808.2103;           18   
     906;   809.0856;           21   
     907;   809.9608;           26   
     908;   810.8361;           18   
     909;   811.7114;           23   
     910;   812.5867;           29   
     911;   813.4619;           24   
     912;   814.3372;           17   
     913;   815.2125;           23   
     914;   816.0878;           22   
     915;   816.9631;           26   
     916;   817.8383;           24   
     917;   818.7136;           28   
     918;   819.5889;           26   
     919;   820.4642;           19   
     920;   821.3394;           20   
     921;   822.2147;           23   
     922;   823.0900;           26   
     923;   823.9653;           18   
     924;   824.8405;           20   
     925;   825.7158;           20   
     926;   826.5911;           28   
     927;   827.4664;           30   
     928;   828.3416;           20   
     929;   829.2169;           17   
     930;   830.0922;           20   
     931;   830.9675;           23   
     932;   831.8427;           16   
     933;   832.7180;           20   
     934;   833.5933;           27   
     935;   834.4686;           17   
     936;   835.3438;           18   
     937;   836.2191;           26   
     938;   837.0944;           21   
     939;   837.9697;           26   
     940;   838.8449;           25   
     941;   839.7202;           15   
     942;   840.5955;           14   
     943;   841.4708;           23   
     944;   842.3460;           20   
     945;   843.2213;           27   
     946;   844.0966;           19   
     947;   844.9719;           23   
     948;   845.8471;           16   
     949;   846.7224;           19   
     950;   847.5977;           29   
     951;   848.4730;           25   
     952;   849.3482;           19   
     953;   850.2235;           26   
     954;   851.0988;           16   
     955;   851.9741;           27   
     956;   852.8493;           23   
     957;   853.7246;           19   
     958;   854.5999;           18   
     959;   855.4752;           26   
     960;   856.3504;           20   
     961;   857.2257;           20   
     962;   858.1010;           16   
     963;   858.9763;           13   
     964;   859.8515;           19   
     965;   860.7268;           31   
     966;   861.6021;           31   
     967;   862.4774;           15   
     968;   863.3526;           35   
     969;   864.2279;           21   
     970;   865.1032;           29   
     971;   865.9785;           29   
     972;   866.8537;           23   
     973;   867.7290;           24   
     974;   868.6043;           18   
     975;   869.4796;           25   
     976;   870.3548;           28   
     977;   871.2301;           28   
     978;   872.1054;           38   
     979;   872.9807;           20   
     980;   873.8559;           29   
     981;   874.7312;           18   
     982;   875.6065;           24   
     983;   876.4818;           23   
     984;   877.3570;           27   
     985;   878.2323;           20   
     986;   879.1076;           30   
     987;   879.9829;           32   
     988;   880.8581;           29   
     989;   881.7334;           26   
     990;   882.6087;           18   
     991;   883.4840;           21   
     992;   884.3592;           14   
     993;   885.2345;           25   
     994;   886.1098;           24   
     995;   886.9851;           17   
     996;   887.8603;           27   
     997;   888.7356;           23   
     998;   889.6109;           26   
     999;   890.4862;           23   
    1000;   891.3614;           22   
    1001;   892.2367;           27   
    1002;   893.1120;           24   
    1003;   893.9873;           22   
    1004;   894.8625;           24   
    1005;   895.7378;           23   
    1006;   896.6131;           23   
    1007;   897.4884;           23   
    1008;   898.3636;           35   
    1009;   899.2389;           17   
    1010;   900.1142;           24   
    1011;   900.9895;           25   
    1012;   901.8647;           21   
    1013;   902.7400;           29   
    1014;   903.6153;           24   
    1015;   904.4906;           35   
    1016;   905.3658;           24   
    1017;   906.2411;           22   
    1018;   907.1164;           25   
    1019;   907.9917;           31   
    1020;   908.8669;           30   
    1021;   909.7422;           22   
    1022;   910.6175;           21   
    1023;   911.4928;           23   
    1024;   912.3680;           25   
    1025;   913.2433;           20   
    1026;   914.1186;           15   
    1027;   914.9939;           35   
    1028;   915.8691;           30   
    1029;   916.7444;           25   
    1030;   917.6197;           27   
    1031;   918.4950;           25   
    1032;   919.3702;           25   
    1033;   920.2455;           27   
    1034;   921.1208;           29   
    1035;   921.9961;           41   
    1036;   922.8713;           53   
    1037;   923.7466;           32   
    1038;   924.6219;           30   
    1039;   925.4972;           24   
    1040;   926.3724;           17   
    1041;   927.2477;           30   
    1042;   928.1230;           22   
    1043;   928.9983;           20   
    1044;   929.8735;           22   
    1045;   930.7488;           29   
    1046;   931.6241;           19   
    1047;   932.4994;           24   
    1048;   933.3746;           28   
    1049;   934.2499;           17   
    1050;   935.1252;           22   
    1051;   936.0005;           32   
    1052;   936.8757;           19   
    1053;   937.7510;           17   
    1054;   938.6263;           22   
    1055;   939.5016;           28   
    1056;   940.3768;           21   
    1057;   941.2521;           21   
    1058;   942.1274;           25   
    1059;   943.0027;           22   
    1060;   943.8779;           41   
    1061;   944.7532;           25   
    1062;   945.6285;           25   
    1063;   946.5038;           25   
    1064;   947.3790;           22   
    1065;   948.2543;           24   
    1066;   949.1296;           40   
    1067;   950.0049;           17   
    1068;   950.8801;           25   
    1069;   951.7554;           37   
    1070;   952.6307;           22   
    1071;   953.5060;           23   
    1072;   954.3812;           21   
    1073;   955.2565;           29   
    1074;   956.1318;           26   
    1075;   957.0071;           21   
    1076;   957.8823;           29   
    1077;   958.7576;           24   
    1078;   959.6329;           28   
    1079;   960.5082;           22   
    1080;   961.3834;           26   
    1081;   962.2587;           27   
    1082;   963.1340;           27   
    1083;   964.0093;           23   
    1084;   964.8845;           19   
    1085;   965.7598;           25   
    1086;   966.6351;           35   
    1087;   967.5104;           39   
    1088;   968.3856;           29   
    1089;   969.2609;           19   
    1090;   970.1362;           33   
    1091;   971.0115;           29   
    1092;   971.8867;           26   
    1093;   972.7620;           16   
    1094;   973.6373;           24   
    1095;   974.5126;           27   
    1096;   975.3878;           20   
    1097;   976.2631;           32   
    1098;   977.1384;           39   
    1099;   978.0137;           38   
    1100;   978.8889;           29   
    1101;   979.7642;           33   
    1102;   980.6395;           28   
    1103;   981.5148;           50   
    1104;   982.3900;           33   
    1105;   983.2653;           40   
    1106;   984.1406;           29   
    1107;   985.0159;           27   
    1108;   985.8911;           27   
    1109;   986.7664;           27   
    1110;   987.6417;           28   
    1111;   988.5170;           33   
    1112;   989.3922;           35   
    1113;   990.2675;           33   
    1114;   991.1428;           29   
    1115;   992.0181;           27   
    1116;   992.8933;           25   
    1117;   993.7686;           31   
    1118;   994.6439;           31   
    1119;   995.5192;           25   
    1120;   996.3944;           31   
    1121;   997.2697;           31   
    1122;   998.1450;           35   
    1123;   999.0203;           25   
    1124;   999.8955;           45   
    1125;  1000.7708;           27   
    1126;  1001.6461;           31   
    1127;  1002.5214;           32   
    1128;  1003.3966;           30   
    1129;  1004.2719;           25   
    1130;  1005.1472;           27   
    1131;  1006.0225;           29   
    1132;  1006.8977;           30   
    1133;  1007.7730;           25   
    1134;  1008.6483;           33   
    1135;  1009.5236;           22   
    1136;  1010.3988;           26   
    1137;  1011.2741;           22   
    1138;  1012.1494;           38   
    1139;  1013.0247;           32   
    1140;  1013.8999;           32   
    1141;  1014.7752;           31   
    1142;  1015.6505;           29   
    1143;  1016.5258;           33   
    1144;  1017.4010;           38   
    1145;  1018.2763;           33   
    1146;  1019.1516;           43   
    1147;  1020.0269;           28   
    1148;  1020.9021;           33   
    1149;  1021.7774;           35   
    1150;  1022.6527;           26   
    1151;  1023.5280;           27   
    1152;  1024.4032;           33   
    1153;  1025.2785;           35   
    1154;  1026.1538;           33   
    1155;  1027.0291;           28   
    1156;  1027.9043;           32   
    1157;  1028.7796;           39   
    1158;  1029.6549;           28   
    1159;  1030.5302;           35   
    1160;  1031.4054;           22   
    1161;  1032.2807;           22   
    1162;  1033.1560;           31   
    1163;  1034.0313;           37   
    1164;  1034.9065;           33   
    1165;  1035.7818;           39   
    1166;  1036.6571;           25   
    1167;  1037.5324;           35   
    1168;  1038.4076;           40   
    1169;  1039.2829;           32   
    1170;  1040.1582;           32   
    1171;  1041.0335;           42   
    1172;  1041.9087;           32   
    1173;  1042.7840;           32   
    1174;  1043.6593;           32   
    1175;  1044.5346;           27   
    1176;  1045.4098;           25   
    1177;  1046.2851;           41   
    1178;  1047.1604;           36   
    1179;  1048.0357;           24   
    1180;  1048.9109;           38   
    1181;  1049.7862;           44   
    1182;  1050.6615;           36   
    1183;  1051.5368;           30   
    1184;  1052.4120;           37   
    1185;  1053.2873;           28   
    1186;  1054.1626;           37   
    1187;  1055.0379;           34   
    1188;  1055.9131;           30   
    1189;  1056.7884;           43   
    1190;  1057.6637;           37   
    1191;  1058.5390;           36   
    1192;  1059.4142;           41   
    1193;  1060.2895;           34   
    1194;  1061.1648;           40   
    1195;  1062.0401;           41   
    1196;  1062.9153;           37   
    1197;  1063.7906;           33   
    1198;  1064.6659;           32   
    1199;  1065.5412;           34   
    1200;  1066.4164;           29   
    1201;  1067.2917;           34   
    1202;  1068.1670;           34   
    1203;  1069.0423;           37   
    1204;  1069.9175;           29   
    1205;  1070.7928;           42   
    1206;  1071.6681;           35   
    1207;  1072.5434;           33   
    1208;  1073.4186;           34   
    1209;  1074.2939;           34   
    1210;  1075.1692;           20   
    1211;  1076.0445;           33   
    1212;  1076.9197;           16   
    1213;  1077.7950;           25   
    1214;  1078.6703;           37   
    1215;  1079.5456;           23   
    1216;  1080.4208;           24   
    1217;  1081.2961;           25   
    1218;  1082.1714;           20   
    1219;  1083.0467;           27   
    1220;  1083.9219;           18   
    1221;  1084.7972;           27   
    1222;  1085.6725;           20   
    1223;  1086.5478;           26   
    1224;  1087.4230;           25   
    1225;  1088.2983;           28   
    1226;  1089.1736;           25   
    1227;  1090.0489;           22   
    1228;  1090.9241;           17   
    1229;  1091.7994;           22   
    1230;  1092.6747;           18   
    1231;  1093.5500;           23   
    1232;  1094.4252;           23   
    1233;  1095.3005;           27   
    1234;  1096.1758;           20   
    1235;  1097.0511;           17   
    1236;  1097.9263;           30   
    1237;  1098.8016;           16   
    1238;  1099.6769;           17   
    1239;  1100.5522;           17   
    1240;  1101.4274;           17   
    1241;  1102.3027;           22   
    1242;  1103.1780;           20   
    1243;  1104.0533;           12   
    1244;  1104.9285;           21   
    1245;  1105.8038;           26   
    1246;  1106.6791;           24   
    1247;  1107.5544;           21   
    1248;  1108.4296;           19   
    1249;  1109.3049;           20   
    1250;  1110.1802;           21   
    1251;  1111.0555;           22   
    1252;  1111.9307;           30   
    1253;  1112.8060;           26   
    1254;  1113.6813;           23   
    1255;  1114.5566;           33   
    1256;  1115.4318;           20   
    1257;  1116.3071;           21   
    1258;  1117.1824;           13   
    1259;  1118.0577;           14   
    1260;  1118.9329;           19   
    1261;  1119.8082;           22   
    1262;  1120.6835;           21   
    1263;  1121.5588;           26   
    1264;  1122.4340;           18   
    1265;  1123.3093;           17   
    1266;  1124.1846;           23   
    1267;  1125.0599;           15   
    1268;  1125.9351;           20   
    1269;  1126.8104;           20   
    1270;  1127.6857;           21   
    1271;  1128.5610;           15   
    1272;  1129.4362;           23   
    1273;  1130.3115;           20   
    1274;  1131.1868;           25   
    1275;  1132.0621;           18   
    1276;  1132.9373;           28   
    1277;  1133.8126;           26   
    1278;  1134.6879;           17   
    1279;  1135.5632;           14   
    1280;  1136.4384;           15   
    1281;  1137.3137;           17   
    1282;  1138.1890;           15   
    1283;  1139.0643;           17   
    1284;  1139.9395;           10   
    1285;  1140.8148;           13   
    1286;  1141.6901;           24   
    1287;  1142.5654;           27   
    1288;  1143.4406;           25   
    1289;  1144.3159;           16   
    1290;  1145.1912;           13   
    1291;  1146.0665;           22   
    1292;  1146.9417;           15   
    1293;  1147.8170;           21   
    1294;  1148.6923;           11   
    1295;  1149.5676;           24   
    1296;  1150.4428;           13   
    1297;  1151.3181;           21   
    1298;  1152.1934;           19   
    1299;  1153.0687;           12   
    1300;  1153.9439;           12   
    1301;  1154.8192;           21   
    1302;  1155.6945;           30   
    1303;  1156.5698;           17   
    1304;  1157.4450;            8   
    1305;  1158.3203;           13   
    1306;  1159.1956;           12   
    1307;  1160.0709;           13   
    1308;  1160.9461;           16   
    1309;  1161.8214;           18   
    1310;  1162.6967;           15   
    1311;  1163.5720;           17   
    1312;  1164.4472;           17   
    1313;  1165.3225;           11   
    1314;  1166.1978;           14   
    1315;  1167.0731;           11   
    1316;  1167.9483;           11   
    1317;  1168.8236;           16   
    1318;  1169.6989;           14   
    1319;  1170.5742;           17   
    1320;  1171.4494;           20   
    1321;  1172.3247;            8   
    1322;  1173.2000;           14   
    1323;  1174.0753;           12   
    1324;  1174.9505;           15   
    1325;  1175.8258;           11   
    1326;  1176.7011;           13   
    1327;  1177.5764;           13   
    1328;  1178.4516;           10   
    1329;  1179.3269;           11   
    1330;  1180.2022;           16   
    1331;  1181.0775;           13   
    1332;  1181.9527;            9   
    1333;  1182.8280;           18   
    1334;  1183.7033;           11   
    1335;  1184.5786;           18   
    1336;  1185.4538;           12   
    1337;  1186.3291;           15   
    1338;  1187.2044;           12   
    1339;  1188.0797;           12   
    1340;  1188.9549;           17   
    1341;  1189.8302;           12   
    1342;  1190.7055;            7   
    1343;  1191.5808;           15   
    1344;  1192.4560;            8   
    1345;  1193.3313;           14   
    1346;  1194.2066;           18   
    1347;  1195.0819;            9   
    1348;  1195.9571;            7   
    1349;  1196.8324;            8   
    1350;  1197.7077;           11   
    1351;  1198.5830;            9   
    1352;  1199.4582;           10   
    1353;  1200.3335;           10   
    1354;  1201.2088;            5   
    1355;  1202.0841;            7   
    1356;  1202.9593;           15   
    1357;  1203.8346;            5   
    1358;  1204.7099;           11   
    1359;  1205.5852;            5   
    1360;  1206.4604;           10   
    1361;  1207.3357;            4   
    1362;  1208.2110;            7   
    1363;  1209.0863;           19   
    1364;  1209.9615;            5   
    1365;  1210.8368;           12   
    1366;  1211.7121;           20   
    1367;  1212.5874;           12   
    1368;  1213.4626;           11   
    1369;  1214.3379;           17   
    1370;  1215.2132;            7   
    1371;  1216.0885;           11   
    1372;  1216.9637;           13   
    1373;  1217.8390;            6   
    1374;  1218.7143;           13   
    1375;  1219.5896;            4   
    1376;  1220.4648;           17   
    1377;  1221.3401;            8   
    1378;  1222.2154;           13   
    1379;  1223.0907;           12   
    1380;  1223.9659;            8   
    1381;  1224.8412;           10   
    1382;  1225.7165;            6   
    1383;  1226.5918;           12   
    1384;  1227.4670;            4   
    1385;  1228.3423;            7   
    1386;  1229.2176;           10   
    1387;  1230.0929;           11   
    1388;  1230.9681;           15   
    1389;  1231.8434;           12   
    1390;  1232.7187;            6   
    1391;  1233.5940;           10   
    1392;  1234.4692;            6   
    1393;  1235.3445;           12   
    1394;  1236.2198;            7   
    1395;  1237.0951;           12   
    1396;  1237.9703;           12   
    1397;  1238.8456;            8   
    1398;  1239.7209;           11   
    1399;  1240.5962;            9   
    1400;  1241.4714;            8   
    1401;  1242.3467;            8   
    1402;  1243.2220;            7   
    1403;  1244.0973;            6   
    1404;  1244.9725;            8   
    1405;  1245.8478;            8   
    1406;  1246.7231;            8   
    1407;  1247.5984;            9   
    1408;  1248.4736;            9   
    1409;  1249.3489;            5   
    1410;  1250.2242;           16   
    1411;  1251.0995;           22   
    1412;  1251.9747;           12   
    1413;  1252.8500;           11   
    1414;  1253.7253;           10   
    1415;  1254.6006;            9   
    1416;  1255.4758;           10   
    1417;  1256.3511;           14   
    1418;  1257.2264;           12   
    1419;  1258.1017;           10   
    1420;  1258.9769;            8   
    1421;  1259.8522;            9   
    1422;  1260.7275;            7   
    1423;  1261.6028;           12   
    1424;  1262.4780;           14   
    1425;  1263.3533;            6   
    1426;  1264.2286;           13   
    1427;  1265.1039;            9   
    1428;  1265.9791;            7   
    1429;  1266.8544;           13   
    1430;  1267.7297;           11   
    1431;  1268.6050;            9   
    1432;  1269.4802;            4   
    1433;  1270.3555;           13   
    1434;  1271.2308;           11   
    1435;  1272.1061;           10   
    1436;  1272.9813;           10   
    1437;  1273.8566;           11   
    1438;  1274.7319;            6   
    1439;  1275.6072;            9   
    1440;  1276.4824;           10   
    1441;  1277.3577;            7   
    1442;  1278.2330;            9   
    1443;  1279.1083;            8   
    1444;  1279.9835;            8   
    1445;  1280.8588;           13   
    1446;  1281.7341;            4   
    1447;  1282.6094;            8   
    1448;  1283.4846;            6   
    1449;  1284.3599;           12   
    1450;  1285.2352;            8   
    1451;  1286.1105;           37   
    1452;  1286.9857;          194   
    1453;  1287.8610;          674   
    1454;  1288.7363;         1275   
    1455;  1289.6116;         1232   
    1456;  1290.4868;          493   
    1457;  1291.3621;          127   
    1458;  1292.2374;           24   
    1459;  1293.1127;           16   
    1460;  1293.9879;           17   
    1461;  1294.8632;           14   
    1462;  1295.7385;           10   
    1463;  1296.6138;            8   
    1464;  1297.4890;           13   
    1465;  1298.3643;           11   
    1466;  1299.2396;            8   
    1467;  1300.1149;            4   
    1468;  1300.9901;            8   
    1469;  1301.8654;            7   
    1470;  1302.7407;            6   
    1471;  1303.6160;           14   
    1472;  1304.4912;            7   
    1473;  1305.3665;            6   
    1474;  1306.2418;            7   
    1475;  1307.1171;           12   
    1476;  1307.9923;           11   
    1477;  1308.8676;            4   
    1478;  1309.7429;            6   
    1479;  1310.6182;            1   
    1480;  1311.4934;            9   
    1481;  1312.3687;            9   
    1482;  1313.2440;            5   
    1483;  1314.1193;            7   
    1484;  1314.9945;            8   
    1485;  1315.8698;            5   
    1486;  1316.7451;            7   
    1487;  1317.6204;            9   
    1488;  1318.4956;           13   
    1489;  1319.3709;            4   
    1490;  1320.2462;           10   
    1491;  1321.1215;           11   
    1492;  1321.9967;            6   
    1493;  1322.8720;            6   
    1494;  1323.7473;            6   
    1495;  1324.6226;            6   
    1496;  1325.4978;            6   
    1497;  1326.3731;           13   
    1498;  1327.2484;            7   
    1499;  1328.1237;            5   
    1500;  1328.9989;            3   
    1501;  1329.8742;            6   
    1502;  1330.7495;            5   
    1503;  1331.6248;            5   
    1504;  1332.5000;            4   
    1505;  1333.3753;            8   
    1506;  1334.2506;            5   
    1507;  1335.1259;            6   
    1508;  1336.0011;            4   
    1509;  1336.8764;            6   
    1510;  1337.7517;            7   
    1511;  1338.6270;            3   
    1512;  1339.5022;            2   
    1513;  1340.3775;            2   
    1514;  1341.2528;            3   
    1515;  1342.1281;            7   
    1516;  1343.0033;            8   
    1517;  1343.8786;            7   
    1518;  1344.7539;            5   
    1519;  1345.6292;            5   
    1520;  1346.5044;            6   
    1521;  1347.3797;            8   
    1522;  1348.2550;            9   
    1523;  1349.1303;            4   
    1524;  1350.0055;            8   
    1525;  1350.8808;            7   
    1526;  1351.7561;            9   
    1527;  1352.6314;            7   
    1528;  1353.5066;            3   
    1529;  1354.3819;            9   
    1530;  1355.2572;            7   
    1531;  1356.1325;            7   
    1532;  1357.0077;            5   
    1533;  1357.8830;            9   
    1534;  1358.7583;            5   
    1535;  1359.6336;            6   
    1536;  1360.5088;            3   
    1537;  1361.3841;           11   
    1538;  1362.2594;            9   
    1539;  1363.1347;            7   
    1540;  1364.0099;            4   
    1541;  1364.8852;            1   
    1542;  1365.7605;            5   
    1543;  1366.6358;            6   
    1544;  1367.5110;            7   
    1545;  1368.3863;            9   
    1546;  1369.2616;            3   
    1547;  1370.1369;           12   
    1548;  1371.0121;            5   
    1549;  1371.8874;            5   
    1550;  1372.7627;            5   
    1551;  1373.6380;            8   
    1552;  1374.5132;            2   
    1553;  1375.3885;            9   
    1554;  1376.2638;            5   
    1555;  1377.1391;            4   
    1556;  1378.0143;            5   
    1557;  1378.8896;            8   
    1558;  1379.7649;            3   
    1559;  1380.6402;            1   
    1560;  1381.5154;            4   
    1561;  1382.3907;            8   
    1562;  1383.2660;            3   
    1563;  1384.1413;            7   
    1564;  1385.0165;            8   
    1565;  1385.8918;            6   
    1566;  1386.7671;            5   
    1567;  1387.6424;            2   
    1568;  1388.5176;            7   
    1569;  1389.3929;            6   
    1570;  1390.2682;           10   
    1571;  1391.1435;            2   
    1572;  1392.0187;            7   
    1573;  1392.8940;            3   
    1574;  1393.7693;            5   
    1575;  1394.6446;            5   
    1576;  1395.5198;            8   
    1577;  1396.3951;            4   
    1578;  1397.2704;            2   
    1579;  1398.1457;            3   
    1580;  1399.0209;           10   
    1581;  1399.8962;           11   
    1582;  1400.7715;            8   
    1583;  1401.6468;            5   
    1584;  1402.5220;            6   
    1585;  1403.3973;            5   
    1586;  1404.2726;            5   
    1587;  1405.1479;            5   
    1588;  1406.0231;            5   
    1589;  1406.8984;            6   
    1590;  1407.7737;            6   
    1591;  1408.6490;            7   
    1592;  1409.5242;            6   
    1593;  1410.3995;            3   
    1594;  1411.2748;            8   
    1595;  1412.1501;            6   
    1596;  1413.0253;            7   
    1597;  1413.9006;            6   
    1598;  1414.7759;            4   
    1599;  1415.6512;            7   
    1600;  1416.5264;            7   
    1601;  1417.4017;            6   
    1602;  1418.2770;            9   
    1603;  1419.1523;            7   
    1604;  1420.0275;            8   
    1605;  1420.9028;           10   
    1606;  1421.7781;            9   
    1607;  1422.6534;            7   
    1608;  1423.5286;            4   
    1609;  1424.4039;           13   
    1610;  1425.2792;            4   
    1611;  1426.1545;            6   
    1612;  1427.0297;            3   
    1613;  1427.9050;            8   
    1614;  1428.7803;            1   
    1615;  1429.6556;            4   
    1616;  1430.5308;            3   
    1617;  1431.4061;            4   
    1618;  1432.2814;            4   
    1619;  1433.1567;            5   
    1620;  1434.0319;           10   
    1621;  1434.9072;            6   
    1622;  1435.7825;            3   
    1623;  1436.6578;            5   
    1624;  1437.5330;            2   
    1625;  1438.4083;            7   
    1626;  1439.2836;            6   
    1627;  1440.1589;            3   
    1628;  1441.0341;            3   
    1629;  1441.9094;            6   
    1630;  1442.7847;            3   
    1631;  1443.6600;            5   
    1632;  1444.5352;            6   
    1633;  1445.4105;            6   
    1634;  1446.2858;            2   
    1635;  1447.1611;            5   
    1636;  1448.0363;            3   
    1637;  1448.9116;            6   
    1638;  1449.7869;            5   
    1639;  1450.6622;            2   
    1640;  1451.5374;            6   
    1641;  1452.4127;            3   
    1642;  1453.2880;            3   
    1643;  1454.1633;            7   
    1644;  1455.0385;            5   
    1645;  1455.9138;            7   
    1646;  1456.7891;            2   
    1647;  1457.6644;            4   
    1648;  1458.5396;            2   
    1649;  1459.4149;            5   
    1650;  1460.2902;            5   
    1651;  1461.1655;            3   
    1652;  1462.0407;            5   
    1653;  1462.9160;            6   
    1654;  1463.7913;            3   
    1655;  1464.6666;            1   
    1656;  1465.5418;            5   
    1657;  1466.4171;            4   
    1658;  1467.2924;            1   
    1659;  1468.1677;           10   
    1660;  1469.0429;            5   
    1661;  1469.9182;            6   
    1662;  1470.7935;            7   
    1663;  1471.6688;            7   
    1664;  1472.5440;            5   
    1665;  1473.4193;            4   
    1666;  1474.2946;           16   
    1667;  1475.1699;           38   
    1668;  1476.0451;          109   
    1669;  1476.9204;          159   
    1670;  1477.7957;           99   
    1671;  1478.6710;           44   
    1672;  1479.5462;           15   
    1673;  1480.4215;            9   
    1674;  1481.2968;            4   
    1675;  1482.1721;            9   
    1676;  1483.0473;            1   
    1677;  1483.9226;            6   
    1678;  1484.7979;            4   
    1679;  1485.6732;            5   
    1680;  1486.5484;            4   
    1681;  1487.4237;            4   
    1682;  1488.2990;            5   
    1683;  1489.1743;            5   
    1684;  1490.0495;            4   
    1685;  1490.9248;            6   
    1686;  1491.8001;            5   
    1687;  1492.6754;            5   
    1688;  1493.5506;            4   
    1689;  1494.4259;            7   
    1690;  1495.3012;            6   
    1691;  1496.1765;            3   
    1692;  1497.0517;            5   
    1693;  1497.9270;            4   
    1694;  1498.8023;            6   
    1695;  1499.6776;            2   
    1696;  1500.5528;            3   
    1697;  1501.4281;            4   
    1698;  1502.3034;            7   
    1699;  1503.1787;            4   
    1700;  1504.0539;            7   
    1701;  1504.9292;            7   
    1702;  1505.8045;            5   
    1703;  1506.6798;            2   
    1704;  1507.5550;            3   
    1705;  1508.4303;            7   
    1706;  1509.3056;            3   
    1707;  1510.1809;            4   
    1708;  1511.0561;            1   
    1709;  1511.9314;            3   
    1710;  1512.8067;            3   
    1711;  1513.6820;            6   
    1712;  1514.5572;            4   
    1713;  1515.4325;            2   
    1714;  1516.3078;            5   
    1715;  1517.1831;            7   
    1716;  1518.0583;            7   
    1717;  1518.9336;            5   
    1718;  1519.8089;            3   
    1719;  1520.6842;            4   
    1720;  1521.5594;            6   
    1721;  1522.4347;            5   
    1722;  1523.3100;            2   
    1723;  1524.1853;            6   
    1724;  1525.0605;            7   
    1725;  1525.9358;            2   
    1726;  1526.8111;            4   
    1727;  1527.6864;            4   
    1728;  1528.5616;            6   
    1729;  1529.4369;            2   
    1730;  1530.3122;            4   
    1731;  1531.1875;            7   
    1732;  1532.0627;            3   
    1733;  1532.9380;            3   
    1734;  1533.8133;            6   
    1735;  1534.6886;            1   
    1736;  1535.5638;            2   
    1737;  1536.4391;            2   
    1738;  1537.3144;            2   
    1739;  1538.1897;            6   
    1740;  1539.0649;            1   
    1741;  1539.9402;            1   
    1742;  1540.8155;            5   
    1743;  1541.6908;            2   
    1744;  1542.5660;            8   
    1745;  1543.4413;            4   
    1746;  1544.3166;            7   
    1747;  1545.1919;            2   
    1748;  1546.0671;            5   
    1749;  1546.9424;            5   
    1750;  1547.8177;            6   
    1751;  1548.6930;            1   
    1752;  1549.5682;            3   
    1753;  1550.4435;            5   
    1754;  1551.3188;            3   
    1755;  1552.1941;            1   
    1756;  1553.0693;            6   
    1757;  1553.9446;            5   
    1758;  1554.8199;            3   
    1759;  1555.6952;            2   
    1760;  1556.5704;            7   
    1761;  1557.4457;            4   
    1762;  1558.3210;            5   
    1763;  1559.1963;            2   
    1764;  1560.0715;            3   
    1765;  1560.9468;            2   
    1766;  1561.8221;            5   
    1767;  1562.6974;            6   
    1768;  1563.5726;            6   
    1769;  1564.4479;            7   
    1770;  1565.3232;            4   
    1771;  1566.1985;            4   
    1772;  1567.0737;            3   
    1773;  1567.9490;            5   
    1774;  1568.8243;            4   
    1775;  1569.6996;            3   
    1776;  1570.5748;            2   
    1777;  1571.4501;           10   
    1778;  1572.3254;            3   
    1779;  1573.2007;            5   
    1780;  1574.0759;            4   
    1781;  1574.9512;            6   
    1782;  1575.8265;            4   
    1783;  1576.7018;            5   
    1784;  1577.5770;            9   
    1785;  1578.4523;            4   
    1786;  1579.3276;            3   
    1787;  1580.2029;            3   
    1788;  1581.0781;            7   
    1789;  1581.9534;            2   
    1790;  1582.8287;            5   
    1791;  1583.7040;            7   
    1792;  1584.5792;            4   
    1793;  1585.4545;            1   
    1794;  1586.3298;            4   
    1795;  1587.2051;            7   
    1796;  1588.0803;            6   
    1797;  1588.9556;            5   
    1798;  1589.8309;            1   
    1799;  1590.7062;            0   
    1800;  1591.5814;            5   
    1801;  1592.4567;            5   
    1802;  1593.3320;            3   
    1803;  1594.2073;            3   
    1804;  1595.0825;            4   
    1805;  1595.9578;            6   
    1806;  1596.8331;            4   
    1807;  1597.7084;            5   
    1808;  1598.5836;            3   
    1809;  1599.4589;            5   
    1810;  1600.3342;            5   
    1811;  1601.2095;            3   
    1812;  1602.0847;            9   
    1813;  1602.9600;            4   
    1814;  1603.8353;            4   
    1815;  1604.7106;            7   
    1816;  1605.5858;            7   
    1817;  1606.4611;            6   
    1818;  1607.3364;            7   
    1819;  1608.2117;            5   
    1820;  1609.0869;            7   
    1821;  1609.9622;            7   
    1822;  1610.8375;            3   
    1823;  1611.7128;            4   
    1824;  1612.5880;            3   
    1825;  1613.4633;            2   
    1826;  1614.3386;            2   
    1827;  1615.2139;            2   
    1828;  1616.0891;            4   
    1829;  1616.9644;            0   
    1830;  1617.8397;            1   
    1831;  1618.7150;            3   
    1832;  1619.5902;            0   
    1833;  1620.4655;            5   
    1834;  1621.3408;            4   
    1835;  1622.2161;            4   
    1836;  1623.0913;            4   
    1837;  1623.9666;            3   
    1838;  1624.8419;            1   
    1839;  1625.7172;            1   
    1840;  1626.5924;            3   
    1841;  1627.4677;            2   
    1842;  1628.3430;            6   
    1843;  1629.2183;            6   
    1844;  1630.0935;            4   
    1845;  1630.9688;            2   
    1846;  1631.8441;            9   
    1847;  1632.7194;            3   
    1848;  1633.5946;            4   
    1849;  1634.4699;            2   
    1850;  1635.3452;            3   
    1851;  1636.2205;            2   
    1852;  1637.0957;            3   
    1853;  1637.9710;            4   
    1854;  1638.8463;            1   
    1855;  1639.7216;            5   
    1856;  1640.5968;            5   
    1857;  1641.4721;            1   
    1858;  1642.3474;            1   
    1859;  1643.2227;            4   
    1860;  1644.0979;            2   
    1861;  1644.9732;            2   
    1862;  1645.8485;            1   
    1863;  1646.7238;            2   
    1864;  1647.5990;            6   
    1865;  1648.4743;            5   
    1866;  1649.3496;            1   
    1867;  1650.2249;            0   
    1868;  1651.1001;            2   
    1869;  1651.9754;            2   
    1870;  1652.8507;            1   
    1871;  1653.7260;            2   
    1872;  1654.6012;            3   
    1873;  1655.4765;            2   
    1874;  1656.3518;            1   
    1875;  1657.2271;            4   
    1876;  1658.1023;            2   
    1877;  1658.9776;            3   
    1878;  1659.8529;            1   
    1879;  1660.7282;            1   
    1880;  1661.6034;            1   
    1881;  1662.4787;            3   
    1882;  1663.3540;            4   
    1883;  1664.2293;            1   
    1884;  1665.1045;            1   
    1885;  1665.9798;            4   
    1886;  1666.8551;            4   
    1887;  1667.7304;            3   
    1888;  1668.6056;            0   
    1889;  1669.4809;            1   
    1890;  1670.3562;            2   
    1891;  1671.2315;            1   
    1892;  1672.1067;            1   
    1893;  1672.9820;            3   
    1894;  1673.8573;            1   
    1895;  1674.7326;            2   
    1896;  1675.6078;            2   
    1897;  1676.4831;            2   
    1898;  1677.3584;            2   
    1899;  1678.2337;            4   
    1900;  1679.1089;            1   
    1901;  1679.9842;            3   
    1902;  1680.8595;            1   
    1903;  1681.7348;            2   
    1904;  1682.6100;            3   
    1905;  1683.4853;            1   
    1906;  1684.3606;            4   
    1907;  1685.2359;            4   
    1908;  1686.1111;            1   
    1909;  1686.9864;            2   
    1910;  1687.8617;            2   
    1911;  1688.7370;            0   
    1912;  1689.6122;            3   
    1913;  1690.4875;            0   
    1914;  1691.3628;            0   
    1915;  1692.2381;            1   
    1916;  1693.1133;            1   
    1917;  1693.9886;            2   
    1918;  1694.8639;            1   
    1919;  1695.7392;            2   
    1920;  1696.6144;            0   
    1921;  1697.4897;            1   
    1922;  1698.3650;            2   
    1923;  1699.2403;            1   
    1924;  1700.1155;            2   
    1925;  1700.9908;            0   
    1926;  1701.8661;            1   
    1927;  1702.7414;            3   
    1928;  1703.6166;            4   
    1929;  1704.4919;            2   
    1930;  1705.3672;            1   
    1931;  1706.2425;            0   
    1932;  1707.1177;            3   
    1933;  1707.9930;            3   
    1934;  1708.8683;            0   
    1935;  1709.7436;            0   
    1936;  1710.6188;            2   
    1937;  1711.4941;            3   
    1938;  1712.3694;            1   
    1939;  1713.2447;            1   
    1940;  1714.1199;            1   
    1941;  1714.9952;            2   
    1942;  1715.8705;            2   
    1943;  1716.7458;            1   
    1944;  1717.6210;            0   
    1945;  1718.4963;            0   
    1946;  1719.3716;            0   
    1947;  1720.2469;            3   
    1948;  1721.1221;            2   
    1949;  1721.9974;            1   
    1950;  1722.8727;            4   
    1951;  1723.7480;            2   
    1952;  1724.6232;            1   
    1953;  1725.4985;            1   
    1954;  1726.3738;            1   
    1955;  1727.2491;            1   
    1956;  1728.1243;            0   
    1957;  1728.9996;            0   
    1958;  1729.8749;            2   
    1959;  1730.7502;            1   
    1960;  1731.6254;            4   
    1961;  1732.5007;            2   
    1962;  1733.3760;            0   
    1963;  1734.2513;            1   
    1964;  1735.1265;            1   
    1965;  1736.0018;            1   
    1966;  1736.8771;            0   
    1967;  1737.7524;            1   
    1968;  1738.6276;            1   
    1969;  1739.5029;            2   
    1970;  1740.3782;            2   
    1971;  1741.2535;            1   
    1972;  1742.1287;            0   
    1973;  1743.0040;            2   
    1974;  1743.8793;            0   
    1975;  1744.7546;            1   
    1976;  1745.6298;            1   
    1977;  1746.5051;            0   
    1978;  1747.3804;            0   
    1979;  1748.2557;            3   
    1980;  1749.1309;            0   
    1981;  1750.0062;            0   
    1982;  1750.8815;            0   
    1983;  1751.7568;            0   
    1984;  1752.6320;            0   
    1985;  1753.5073;            0   
    1986;  1754.3826;            0   
    1987;  1755.2579;            0   
    1988;  1756.1331;            0   
    1989;  1757.0084;            0   
    1990;  1757.8837;            0   
    1991;  1758.7590;            0   
    1992;  1759.6342;            0   
    1993;  1760.5095;            0   
    1994;  1761.3848;            0   
    1995;  1762.2601;            0   
    1996;  1763.1353;            0   
    1997;  1764.0106;            0   
    1998;  1764.8859;            0   
    1999;  1765.7612;            0   
    2000;  1766.6364;            0   
    2001;  1767.5117;            0   
    2002;  1768.3870;            0   
    2003;  1769.2623;            0   
    2004;  1770.1375;            0   
    2005;  1771.0128;            0   
    2006;  1771.8881;            0   
    2007;  1772.7634;            0   
    2008;  1773.6386;            0   
    2009;  1774.5139;            0   
    2010;  1775.3892;            0   
    2011;  1776.2645;            0   
    2012;  1777.1397;            0   
    2013;  1778.0150;            0   
    2014;  1778.8903;            0   
    2015;  1779.7656;            0   
    2016;  1780.6408;            0   
    2017;  1781.5161;            0   
    2018;  1782.3914;            0   
    2019;  1783.2667;            0   
    2020;  1784.1419;            0   
    2021;  1785.0172;            0   
    2022;  1785.8925;            0   
    2023;  1786.7678;            0   
    2024;  1787.6430;            0   
    2025;  1788.5183;            0   
    2026;  1789.3936;            0   
    2027;  1790.2689;            0   
    2028;  1791.1441;            0   
    2029;  1792.0194;            0   
    2030;  1792.8947;            0   
    2031;  1793.7700;            0   
    2032;  1794.6452;            0   
    2033;  1795.5205;            0   
    2034;  1796.3958;            0   
    2035;  1797.2711;            0   
    2036;  1798.1463;            0   
    2037;  1799.0216;            0   
    2038;  1799.8969;            0   
    2039;  1800.7722;            0   
    2040;  1801.6474;            0   
    2041;  1802.5227;            0   
    2042;  1803.3980;            0   
    2043;  1804.2733;            0   
    2044;  1805.1485;            0   
    2045;  1806.0238;            0   
    2046;  1806.8991;            0   
    2047;  1807.7744;            0   
    2048;  1808.6496;            0   
ROI Nummer; Anfangskanal; Endkanal; Anfangsenergie keV ; Endenergie keV; Nettoimpulse; Bruttoimpulse; Untergrundimpulse
In den Daten wurden keine Linien gefunden
ROI Nummer; prozentualer Fehler der Lage; Lage keV; FWHM keV; FWTM keV; FWTM/FWHM Verhltnis; H/L Verhltnis
No Peak records found in data.
Name; Energie keV; Flags; Aktivitt uCi/Unit; Aktivittsfehler %; NWG uCi/Unit; MDA Error %
Es wurden keine Nuklidergebnisse gefunden.
Name; Erwartete Endergie keV; Gemessene Energie keV; Differenz von erwarteter keV; FWHM; Flags; Aktivitt uCi/Unit; Aktivittsfehler %
Es wurden keine Nuklidergebnisse gefunden.
